* Measurement data measured by REW V5.31.1
* Source: Microphone (USB Sound Device        ), MICROPHONE (Master Volume), L, volume: 0.850
* Format: 256k Log Swept Sine, 1 sweep at -20.0 dBFS with no timing reference
* Dated: Jul 16, 2024 12:20:03 AM
* REW Settings:
*  C-weighting compensation: Off
*  Target level: 75.0 dB
* Note: 
* Measurement: L HYDRO UUDD Jul 16
* Smoothing: None
* Frequency Step: 1/48 octave
* Start Frequency: 20.300 Hz
*
* Freq(Hz) SPL(dB) Phase(degrees)
20.299999 135.146 -136.0032
20.600000 135.212 -136.2827
20.900000 135.272 -136.5414
21.200001 135.332 -136.8221
21.400000 135.372 -137.0241
21.799999 135.453 -137.4534
22.000000 135.494 -137.6727
22.400000 135.575 -138.1010
22.700001 135.636 -138.4043
23.000000 135.698 -138.6930
23.299999 135.761 -138.9760
23.600000 135.822 -139.2607
24.000000 135.900 -139.6494
24.299999 135.954 -139.9455
24.700001 136.021 -140.3368
25.000000 136.070 -140.6221
25.400000 136.136 -140.9911
25.799999 136.205 -141.3568
26.200001 136.276 -141.7310
26.500000 136.330 -142.0195
26.900000 136.400 -142.4100
27.200001 136.450 -142.7005
27.600000 136.513 -143.0773
28.000000 136.574 -143.4415
28.500000 136.649 -143.8930
29.000000 136.723 -144.3599
29.500000 136.795 -144.8428
30.000000 136.863 -145.3167
30.400000 136.915 -145.6699
30.700001 136.953 -145.9163
31.100000 137.006 -146.2289
31.500000 137.060 -146.5419
32.000000 137.127 -146.9648
32.500000 137.191 -147.4352
33.000000 137.248 -147.9256
33.500000 137.301 -148.3913
34.000000 137.359 -148.8085
34.500000 137.424 -149.2008
35.000000 137.493 -149.6093
35.500000 137.555 -150.0472
36.000000 137.605 -150.4819
36.500000 137.646 -150.8749
37.000000 137.688 -151.2312
37.500000 137.738 -151.6005
38.200001 137.814 -152.2081
38.700001 137.862 -152.6757
39.500000 137.928 -153.3425
40.000000 137.969 -153.7089
40.599998 138.020 -154.1647
41.200001 138.067 -154.6611
41.799999 138.108 -155.1459
42.500000 138.160 -155.6550
43.099998 138.211 -156.0948
43.700001 138.261 -156.5773
44.400002 138.306 -157.1432
45.000000 138.341 -157.5838
45.500000 138.374 -157.9386
46.200001 138.424 -158.4638
46.799999 138.462 -158.9366
47.500000 138.500 -159.4745
48.200001 138.534 -159.9866
48.700001 138.559 -160.3381
49.400002 138.595 -160.8165
50.000000 138.630 -161.2335
50.799999 138.673 -161.8117
51.500000 138.705 -162.3120
52.200001 138.737 -162.8115
53.000000 138.771 -163.4055
53.799999 138.802 -163.9876
54.500000 138.832 -164.4823
55.200001 138.863 -164.9871
56.000000 138.890 -165.5359
57.000000 138.922 -166.1509
58.000000 138.957 -166.7850
59.000000 138.987 -167.4405
60.000000 139.011 -168.0897
60.799999 139.028 -168.6180
61.500000 139.041 -169.0987
62.200001 139.053 -169.5639
63.000000 139.073 -170.0514
64.000000 139.097 -170.6461
65.000000 139.115 -171.2195
66.000000 139.135 -171.8593
67.000000 139.139 -172.5079
68.000000 139.149 -173.0505
69.000000 139.168 -173.6942
70.000000 139.173 -174.2754
71.000000 139.188 -174.7399
72.000000 139.194 -175.3652
73.000000 139.179 -175.9856
74.000000 139.189 -176.4847
75.000000 139.212 -177.0437
76.199997 139.215 -177.7097
77.500000 139.198 -178.4918
78.800003 139.189 -179.1056
80.000000 139.198 -179.7845
81.199997 139.184 179.6065
82.500000 139.190 178.9656
83.800003 139.167 178.2451
85.000000 139.153 177.7035
86.199997 139.151 177.1349
87.500000 139.128 176.4879
88.500000 139.132 176.1080
90.000000 139.129 175.2037
91.199997 139.075 174.8601
92.500000 139.060 174.2053
93.800003 139.037 173.6202
95.000000 139.031 173.0878
96.199997 138.990 172.5515
97.500000 138.978 171.9697
98.800003 138.961 171.5606
100.000000 138.950 171.0820
101.500000 138.874 170.2333
103.000000 138.848 169.6934
104.400002 138.811 169.1243
106.000000 138.777 168.5758
107.500000 138.743 167.9651
109.000000 138.700 167.3666
110.599998 138.634 167.0840
112.000000 138.608 166.2014
113.800003 138.586 165.7095
115.000000 138.533 165.3349
117.199997 138.458 164.5081
118.000000 138.435 164.3187
120.599998 138.363 163.5316
122.000000 138.325 162.8845
124.099998 138.261 162.3962
125.000000 138.216 161.9365
126.500000 138.159 161.6336
128.000000 138.109 161.2577
131.500000 138.007 160.2188
132.000000 137.979 160.0500
134.000000 137.908 159.6307
136.000000 137.826 159.0860
138.000000 137.757 158.6080
140.000000 137.674 158.1358
143.000000 137.565 157.4446
145.000000 137.492 157.0068
147.500000 137.389 156.5270
150.000000 137.307 156.0030
152.500000 137.185 155.5117
155.000000 137.111 155.0483
157.500000 136.997 154.6374
160.000000 136.906 154.2115
162.500000 136.805 153.8347
165.000000 136.703 153.3976
167.500000 136.597 153.0945
170.000000 136.505 152.7841
172.500000 136.407 152.4302
175.000000 136.302 152.0883
177.500000 136.205 151.8838
180.000000 136.107 151.5293
182.500000 135.994 151.5067
185.000000 135.930 151.1548
187.500000 135.797 151.1163
190.000000 135.714 150.9742
192.500000 135.588 150.6914
195.000000 135.509 150.5291
197.500000 135.411 150.3378
200.000000 135.301 150.3435
203.000000 135.174 150.1760
206.000000 135.049 149.9646
209.000000 134.908 149.9814
212.000000 134.833 149.6763
214.000000 134.773 149.6619
218.000000 134.626 149.6593
220.000000 134.542 149.7354
224.000000 134.402 149.6459
227.000000 134.299 149.7204
230.000000 134.183 149.7919
233.000000 134.077 149.8121
236.000000 133.966 149.9441
240.000000 133.836 149.9292
243.000000 133.734 150.1139
247.000000 133.602 150.2692
250.000000 133.510 150.4619
254.000000 133.382 150.6221
258.000000 133.256 150.8505
262.000000 133.135 151.0626
265.000000 133.044 151.2282
269.000000 132.922 151.5835
272.000000 132.835 151.7218
276.000000 132.723 152.1864
280.000000 132.614 152.3821
285.000000 132.492 152.7943
290.000000 132.356 153.2301
295.000000 132.227 153.7825
300.000000 132.117 154.1560
304.000000 132.020 154.6025
307.000000 131.957 154.8674
311.000000 131.860 155.3043
315.000000 131.789 155.7428
320.000000 131.688 156.2461
325.000000 131.588 156.7134
330.000000 131.486 157.3122
335.000000 131.402 157.9101
340.000000 131.307 158.3600
345.000000 131.239 158.9476
350.000000 131.151 159.4759
355.000000 131.070 160.0825
360.000000 130.991 160.6756
365.000000 130.930 161.1502
370.000000 130.872 161.7688
375.000000 130.816 162.3525
382.000000 130.727 163.0761
387.000000 130.670 163.6737
395.000000 130.586 164.5646
400.000000 130.538 165.1291
406.000000 130.478 165.8962
412.000000 130.427 166.5037
418.000000 130.382 167.1417
425.000000 130.320 167.9341
431.000000 130.280 168.6431
437.000000 130.235 169.2093
444.000000 130.185 169.9888
450.000000 130.141 170.4970
455.000000 130.136 171.0977
462.000000 130.095 171.7818
468.000000 130.063 172.4139
475.000000 130.022 173.0415
482.000000 130.007 173.8518
487.000000 129.995 174.2759
494.000000 129.946 175.0413
500.000000 129.941 175.5617
508.000000 129.907 176.3745
515.000000 129.887 177.0316
522.000000 129.872 177.6625
530.000000 129.855 178.3813
538.000000 129.843 179.0674
545.000000 129.840 179.7116
552.000000 129.821 -179.6661
560.000000 129.800 -179.0137
570.000000 129.803 -178.0899
580.000000 129.808 -177.1122
590.000000 129.802 -176.3186
600.000000 129.795 -175.4257
608.000000 129.787 -174.7576
615.000000 129.800 -174.2416
622.000000 129.803 -173.7197
630.000000 129.797 -173.1262
640.000000 129.810 -172.2578
650.000000 129.817 -171.5374
660.000000 129.824 -170.7193
670.000000 129.846 -169.9010
680.000000 129.855 -169.1275
690.000000 129.873 -168.3490
700.000000 129.892 -167.6929
710.000000 129.916 -166.8754
720.000000 129.944 -166.1918
730.000000 129.963 -165.4565
740.000000 129.990 -164.6575
750.000000 130.027 -163.8649
762.000000 130.042 -163.0056
775.000000 130.108 -162.1375
788.000000 130.157 -161.2309
800.000000 130.190 -160.3080
812.000000 130.256 -159.5482
825.000000 130.311 -158.5766
838.000000 130.379 -157.6343
850.000000 130.440 -156.7231
862.000000 130.521 -156.1891
875.000000 130.599 -155.4120
885.000000 130.665 -154.8165
900.000000 130.745 -153.9784
912.000000 130.829 -153.3508
925.000000 130.918 -152.5724
938.000000 130.998 -151.9540
950.000000 131.087 -151.2905
962.000000 131.150 -150.6900
975.000000 131.247 -149.9290
988.000000 131.344 -149.3253
1000.000000 131.455 -148.6831
1015.000000 131.576 -147.9012
1030.000000 131.705 -147.3844
1044.000000 131.836 -146.9149
1060.000000 131.982 -146.4577
1075.000000 132.114 -146.1250
1090.000000 132.238 -145.6837
1106.000000 132.379 -145.3648
1120.000000 132.488 -145.0649
1138.000000 132.635 -144.8032
1150.000000 132.711 -144.5900
1172.000000 132.885 -144.3247
1180.000000 132.954 -144.2620
1206.000000 133.145 -143.8873
1220.000000 133.228 -143.8461
1241.000000 133.367 -143.7339
1250.000000 133.424 -143.7191
1265.000000 133.518 -143.5610
1280.000000 133.619 -143.4676
1315.000000 133.824 -143.3944
1320.000000 133.854 -143.3572
1340.000000 133.958 -143.2787
1360.000000 134.060 -143.2522
1380.000000 134.174 -143.1869
1400.000000 134.274 -143.1463
1430.000000 134.426 -143.0842
1450.000000 134.510 -143.0684
1475.000000 134.632 -142.9894
1500.000000 134.752 -142.9117
1525.000000 134.873 -142.8969
1550.000000 134.986 -142.7964
1575.000000 135.095 -142.7259
1600.000000 135.206 -142.6780
1625.000000 135.312 -142.7126
1650.000000 135.431 -142.6440
1675.000000 135.549 -142.5708
1700.000000 135.649 -142.5771
1725.000000 135.767 -142.5302
1750.000000 135.877 -142.5186
1775.000000 135.992 -142.5212
1800.000000 136.110 -142.5979
1825.000000 136.228 -142.6561
1850.000000 136.354 -142.6608
1875.000000 136.469 -142.6897
1900.000000 136.586 -142.8465
1925.000000 136.706 -142.8936
1950.000000 136.819 -143.0509
1975.000000 136.944 -143.1983
2000.000000 137.065 -143.2400
2030.000000 137.216 -143.5231
2060.000000 137.359 -143.8134
2090.000000 137.510 -144.1331
2120.000000 137.665 -144.4032
2140.000000 137.762 -144.7323
2180.000000 137.959 -145.2442
2200.000000 138.059 -145.5598
2240.000000 138.249 -146.2684
2270.000000 138.398 -146.8055
2300.000000 138.538 -147.4310
2330.000000 138.671 -148.0048
2360.000000 138.812 -148.7370
2400.000000 138.988 -149.7137
2430.000000 139.116 -150.5148
2470.000000 139.271 -151.6559
2500.000000 139.382 -152.5690
2540.000000 139.519 -153.8067
2580.000000 139.645 -155.0992
2620.000000 139.767 -156.4369
2650.000000 139.840 -157.5349
2690.000000 139.931 -158.9527
2720.000000 139.987 -160.0228
2760.000000 140.044 -161.5526
2800.000000 140.097 -162.9515
2850.000000 140.142 -164.8012
2900.000000 140.165 -166.6243
2950.000000 140.173 -168.3625
3000.000000 140.166 -170.0796
3040.000000 140.127 -171.4983
3070.000000 140.101 -172.4893
3110.000000 140.055 -173.7795
3150.000000 140.007 -175.0285
3200.000000 139.932 -176.5222
3250.000000 139.833 -177.9802
3300.000000 139.743 -179.3185
3350.000000 139.638 179.4226
3400.000000 139.514 178.2288
3450.000000 139.407 177.0890
3500.000000 139.288 176.0939
3550.000000 139.152 175.0806
3600.000000 139.033 174.1498
3650.000000 138.901 173.3517
3700.000000 138.761 172.6304
3750.000000 138.632 171.8596
3820.000000 138.449 170.9868
3870.000000 138.318 170.3730
3950.000000 138.100 169.4948
4000.000000 137.969 169.0630
4060.000000 137.838 168.5813
4120.000000 137.676 168.0875
4180.000000 137.519 167.7307
4250.000000 137.351 167.2835
4310.000000 137.209 167.0068
4370.000000 137.056 166.6995
4440.000000 136.890 166.5606
4500.000000 136.736 166.3585
4550.000000 136.614 166.1748
4620.000000 136.470 166.0900
4680.000000 136.305 166.0414
4750.000000 136.150 165.9584
4820.000000 135.987 165.9362
4870.000000 135.871 166.0167
4940.000000 135.700 166.1222
5000.000000 135.545 166.2258
5080.000000 135.372 166.5056
5150.000000 135.209 166.7704
5220.000000 135.053 167.0012
5300.000000 134.893 167.4804
5380.000000 134.694 167.9504
5450.000000 134.546 168.4659
5520.000000 134.380 169.0208
5600.000000 134.211 169.7170
5700.000000 133.995 170.6330
5800.000000 133.797 171.7008
5900.000000 133.596 172.8937
6000.000000 133.418 174.2267
6080.000000 133.274 175.7014
6150.000000 133.164 176.7440
6220.000000 133.071 178.1113
6300.000000 132.998 179.6457
6400.000000 132.931 -178.3956
6500.000000 132.941 -176.5157
6600.000000 132.947 -174.9343
6700.000000 132.958 -173.3000
6800.000000 132.995 -171.8612
6900.000000 133.019 -170.6303
7000.000000 133.095 -169.0621
7100.000000 133.146 -167.7185
7200.000000 133.246 -166.3774
7300.000000 133.356 -164.9706
7400.000000 133.534 -163.8496
7500.000000 133.719 -162.8132
7620.000000 133.950 -161.8899
7750.000000 134.273 -161.1383
7880.000000 134.612 -161.0233
8000.000000 134.976 -161.3173
8120.000000 135.332 -162.1035
8250.000000 135.726 -163.7326
8380.000000 136.102 -166.4640
8500.000000 136.359 -169.7044
8620.000000 136.499 -173.6372
8750.000000 136.483 -178.4962
8850.000000 136.316 177.7599
9000.000000 135.885 172.5029
9120.000000 135.363 169.2112
9250.000000 134.726 166.4711
9380.000000 134.029 164.7137
9500.000000 133.398 163.9050
9620.000000 132.778 163.7343
9750.000000 132.156 164.2540
9880.000000 131.595 165.3347
10000.000000 131.090 166.9875
10150.000000 130.552 169.1167
10300.000000 130.139 171.5089
10440.000000 129.793 173.7413
10600.000000 129.491 177.1567
10750.000000 129.312 179.7811
10900.000000 129.154 -177.4835
11060.000000 129.042 -174.3805
11200.000000 129.045 -171.7529
11380.000000 129.034 -168.8711
11500.000000 129.039 -167.0908
11720.000000 129.217 -163.4739
11800.000000 129.294 -162.1861
12060.000000 129.462 -158.5715
12200.000000 129.679 -156.8616
12410.000000 130.027 -153.5241
12500.000000 130.208 -152.3095
12650.000000 130.619 -150.3611
12800.000000 131.068 -148.9087
13150.000000 132.650 -147.7404
13200.000000 132.921 -148.1116
13400.000000 134.169 -151.4249
13600.000000 135.405 -159.8051
13800.000000 136.089 -173.6796
14000.000000 135.573 170.4281
14300.000000 133.160 154.5302
14500.000000 131.361 150.3005
14750.000000 129.370 149.6058
15000.000000 127.746 151.2172
15250.000000 126.552 154.6977
15500.000000 125.666 157.8737
15750.000000 124.988 160.8338
16000.000000 124.697 162.9460
16250.000000 124.396 164.2506
16500.000000 124.094 163.8019
16750.000000 123.790 161.8640
17000.000000 123.312 159.6890
17250.000000 122.567 156.3393
17500.000000 121.618 154.6819
17750.000000 120.244 153.6344
18000.000000 119.579 153.5113
18250.000000 117.998 150.6184
18500.000000 116.286 152.7609
18750.000000 114.600 157.4425
19000.000000 113.949 158.5497
19250.000000 112.844 158.0174
19500.000000 110.772 148.2263
19750.000000 105.476 147.1463
