* Measurement data measured by REW V5.31.1
* Source: Microphone (USB Sound Device        ), MICROPHONE (Master Volume), L, volume: 0.850
* Format: 256k Log Swept Sine, 1 sweep at -20.0 dBFS with no timing reference
* Dated: Jul 16, 2024 12:18:42 AM
* REW Settings:
*  C-weighting compensation: Off
*  Target level: 75.0 dB
* Note: 
* Measurement: L HYDRO DDDD Jul 16
* Smoothing: None
* Frequency Step: 1/48 octave
* Start Frequency: 20.300 Hz
*
* Freq(Hz) SPL(dB) Phase(degrees)
20.299999 135.179 -138.3652
20.600000 135.378 -138.8823
20.900000 135.512 -139.0626
21.200001 135.602 -139.0686
21.400000 135.647 -139.0929
21.799999 135.705 -139.3848
22.000000 135.717 -139.7024
22.400000 135.701 -140.5975
22.700001 135.665 -141.2098
23.000000 135.638 -141.4459
23.299999 135.668 -141.1960
23.600000 135.782 -140.6252
24.000000 136.060 -139.8998
24.299999 136.303 -139.8116
24.700001 136.555 -140.4767
25.000000 136.633 -141.3492
25.400000 136.577 -142.5054
25.799999 136.423 -143.1469
26.200001 136.304 -143.1983
26.500000 136.296 -143.1059
26.900000 136.393 -143.1971
27.200001 136.506 -143.5430
27.600000 136.651 -144.2464
28.000000 136.753 -144.9185
28.500000 136.826 -145.4520
29.000000 136.866 -145.7522
29.500000 136.877 -145.9518
30.000000 136.880 -145.9489
30.400000 136.914 -145.8046
30.700001 136.973 -145.7370
31.100000 137.077 -145.9138
31.500000 137.173 -146.4426
32.000000 137.237 -147.2778
32.500000 137.270 -147.7794
33.000000 137.366 -147.8951
33.500000 137.549 -148.1651
34.000000 137.720 -148.9667
34.500000 137.774 -149.9838
35.000000 137.713 -150.6737
35.500000 137.630 -150.9061
36.000000 137.605 -151.1066
36.500000 137.636 -151.6674
37.000000 137.688 -152.5084
37.500000 137.746 -153.2843
38.200001 137.854 -153.9444
38.700001 137.943 -154.1857
39.500000 138.068 -154.3215
40.000000 138.139 -154.3147
40.599998 138.215 -154.3660
41.200001 138.266 -154.5421
41.799999 138.295 -154.8244
42.500000 138.328 -155.4272
43.099998 138.361 -156.2421
43.700001 138.404 -157.1021
44.400002 138.487 -157.9427
45.000000 138.562 -158.5201
45.500000 138.597 -158.8148
46.200001 138.623 -158.9031
46.799999 138.658 -159.0993
47.500000 138.669 -159.8830
48.200001 138.642 -160.6811
48.700001 138.663 -161.0427
49.400002 138.760 -161.6815
50.000000 138.804 -162.3497
50.799999 138.803 -162.6422
51.500000 138.872 -162.8756
52.200001 138.929 -163.8148
53.000000 138.911 -164.4977
53.799999 138.999 -164.4470
54.500000 139.089 -165.0178
55.200001 139.039 -165.6598
56.000000 139.000 -165.7119
57.000000 139.116 -166.6574
58.000000 139.083 -167.9210
59.000000 139.097 -168.0334
60.000000 139.230 -168.8044
60.799999 139.225 -169.6783
61.500000 139.168 -169.7493
62.200001 139.203 -169.6034
63.000000 139.287 -170.5275
64.000000 139.186 -171.7572
65.000000 139.239 -171.4590
66.000000 139.379 -172.5522
67.000000 139.309 -173.3927
68.000000 139.299 -173.7658
69.000000 139.285 -174.0975
70.000000 139.397 -174.6983
71.000000 139.358 -176.0515
72.000000 139.266 -175.6901
73.000000 139.378 -175.9323
74.000000 139.373 -177.0544
75.000000 139.373 -177.7061
76.199997 139.337 -178.4905
77.500000 139.360 -178.6979
78.800003 139.365 -179.6707
80.000000 139.374 179.6848
81.199997 139.333 178.6699
82.500000 139.289 178.3966
83.800003 139.296 177.9203
85.000000 139.325 177.2158
86.199997 139.284 176.5887
87.500000 139.311 175.8963
88.500000 139.253 175.2943
90.000000 139.253 174.6817
91.199997 139.200 174.1710
92.500000 139.195 173.5005
93.800003 139.140 173.1852
95.000000 139.157 172.5732
96.199997 139.116 172.0831
97.500000 139.093 171.5565
98.800003 139.041 171.0597
100.000000 139.032 170.9057
101.500000 138.996 169.6493
103.000000 138.954 169.4704
104.400002 138.908 168.7468
106.000000 138.907 168.2915
107.500000 138.836 167.6422
109.000000 138.798 167.1544
110.599998 138.783 166.6479
112.000000 138.710 165.7629
113.800003 138.737 165.4022
115.000000 138.644 164.6519
117.199997 138.647 164.1584
118.000000 138.580 163.9051
120.599998 138.520 162.9667
122.000000 138.501 162.8942
124.099998 138.356 161.8906
125.000000 138.356 162.1772
126.500000 138.352 161.1759
128.000000 138.198 160.9711
131.500000 138.099 160.2896
132.000000 138.107 160.2983
134.000000 138.018 159.4174
136.000000 137.920 159.2552
138.000000 137.876 158.2686
140.000000 137.761 158.0156
143.000000 137.669 156.9833
145.000000 137.651 157.1497
147.500000 137.475 155.9042
150.000000 137.477 155.8534
152.500000 137.307 154.9818
155.000000 137.245 155.2403
157.500000 137.156 153.8913
160.000000 137.052 154.4348
162.500000 136.946 153.5849
165.000000 136.876 153.0248
167.500000 136.657 153.0349
170.000000 136.725 152.4537
172.500000 136.501 152.4157
175.000000 136.407 151.7670
177.500000 136.345 152.2405
180.000000 136.291 151.5051
182.500000 136.157 151.0883
185.000000 136.013 150.9640
187.500000 135.915 150.8208
190.000000 135.808 150.6349
192.500000 135.765 150.5350
195.000000 135.689 150.5222
197.500000 135.570 150.1855
200.000000 135.501 150.2929
203.000000 135.371 149.8927
206.000000 135.222 149.9908
209.000000 134.953 149.6324
212.000000 134.971 148.8586
214.000000 134.934 149.4183
218.000000 134.771 149.6937
220.000000 134.743 149.2909
224.000000 134.495 148.9986
227.000000 134.439 149.3457
230.000000 134.379 149.6260
233.000000 134.315 149.7165
236.000000 134.116 150.1495
240.000000 133.969 149.7645
243.000000 133.929 150.1734
247.000000 133.731 150.3217
250.000000 133.631 150.4014
254.000000 133.579 150.7165
258.000000 133.370 150.6412
262.000000 133.332 151.2621
265.000000 133.146 151.0271
269.000000 133.065 151.6532
272.000000 132.989 151.4207
276.000000 132.820 152.2325
280.000000 132.811 152.6022
285.000000 132.695 152.8013
290.000000 132.556 153.1755
295.000000 132.434 153.8136
300.000000 132.320 154.4756
304.000000 132.255 154.5618
307.000000 132.081 154.1885
311.000000 131.982 154.8439
315.000000 131.892 155.2290
320.000000 131.878 156.1416
325.000000 131.690 157.0758
330.000000 131.603 157.0424
335.000000 131.554 157.9659
340.000000 131.427 158.4752
345.000000 131.348 158.7286
350.000000 131.280 159.4652
355.000000 131.185 160.2817
360.000000 131.150 160.5819
365.000000 131.079 161.2025
370.000000 130.997 161.5223
375.000000 130.915 162.1667
382.000000 130.826 163.0060
387.000000 130.784 163.6162
395.000000 130.726 164.6258
400.000000 130.664 165.1226
406.000000 130.607 165.9461
412.000000 130.581 166.4648
418.000000 130.502 167.1922
425.000000 130.478 167.8965
431.000000 130.405 168.4466
437.000000 130.396 168.9789
444.000000 130.362 169.9730
450.000000 130.290 170.3290
455.000000 130.249 171.3774
462.000000 130.230 171.6790
468.000000 130.232 172.4015
475.000000 130.195 172.8680
482.000000 130.150 174.0340
487.000000 130.124 174.3623
494.000000 130.088 174.7344
500.000000 130.087 175.7971
508.000000 130.109 176.4092
515.000000 130.056 177.0152
522.000000 130.031 177.6415
530.000000 130.023 178.3946
538.000000 130.023 179.0665
545.000000 129.976 179.7304
552.000000 130.011 -179.6885
560.000000 129.959 -178.9503
570.000000 130.009 -178.0251
580.000000 129.931 -177.2959
590.000000 129.986 -176.4336
600.000000 129.948 -175.8474
608.000000 129.933 -174.9557
615.000000 129.897 -174.2649
622.000000 129.944 -173.7744
630.000000 129.937 -173.3358
640.000000 129.969 -172.4373
650.000000 129.997 -171.5931
660.000000 129.983 -170.7568
670.000000 130.005 -170.1326
680.000000 130.005 -169.1698
690.000000 130.028 -168.6116
700.000000 130.070 -167.7200
710.000000 130.075 -166.8255
720.000000 130.102 -166.2113
730.000000 130.121 -165.4337
740.000000 130.152 -164.5582
750.000000 130.159 -163.9434
762.000000 130.214 -163.1797
775.000000 130.230 -162.2720
788.000000 130.292 -161.2485
800.000000 130.344 -160.3586
812.000000 130.406 -159.5574
825.000000 130.455 -158.5598
838.000000 130.545 -157.7069
850.000000 130.584 -157.0092
862.000000 130.677 -156.3335
875.000000 130.754 -155.4899
885.000000 130.831 -154.7374
900.000000 130.921 -153.9718
912.000000 130.984 -153.2860
925.000000 131.067 -152.6291
938.000000 131.161 -151.8601
950.000000 131.233 -151.3287
962.000000 131.310 -150.7562
975.000000 131.406 -150.0868
988.000000 131.510 -149.3680
1000.000000 131.635 -148.6954
1015.000000 131.757 -148.0946
1030.000000 131.887 -147.4248
1044.000000 132.008 -146.9341
1060.000000 132.163 -146.4557
1075.000000 132.287 -146.0757
1090.000000 132.413 -145.7265
1106.000000 132.565 -145.4111
1120.000000 132.681 -145.1624
1138.000000 132.806 -144.7583
1150.000000 132.921 -144.5147
1172.000000 133.089 -144.3521
1180.000000 133.123 -144.2824
1206.000000 133.312 -143.9225
1220.000000 133.414 -143.8948
1241.000000 133.537 -143.8464
1250.000000 133.606 -143.7989
1265.000000 133.684 -143.5506
1280.000000 133.781 -143.6445
1315.000000 133.993 -143.5482
1320.000000 134.023 -143.5385
1340.000000 134.141 -143.4716
1360.000000 134.241 -143.4285
1380.000000 134.339 -143.3620
1400.000000 134.446 -143.2885
1430.000000 134.588 -143.2706
1450.000000 134.685 -143.2561
1475.000000 134.797 -143.2220
1500.000000 134.920 -143.0769
1525.000000 135.037 -143.1236
1550.000000 135.148 -143.1008
1575.000000 135.253 -143.0295
1600.000000 135.369 -143.0173
1625.000000 135.479 -142.8925
1650.000000 135.586 -142.8952
1675.000000 135.721 -142.9049
1700.000000 135.834 -142.8503
1725.000000 135.940 -142.8301
1750.000000 136.058 -142.8816
1775.000000 136.182 -142.8473
1800.000000 136.282 -142.8977
1825.000000 136.391 -142.8978
1850.000000 136.500 -142.9730
1875.000000 136.625 -143.0297
1900.000000 136.741 -143.0911
1925.000000 136.866 -143.1981
1950.000000 136.982 -143.3729
1975.000000 137.109 -143.5222
2000.000000 137.242 -143.6953
2030.000000 137.386 -143.8845
2060.000000 137.531 -144.1841
2090.000000 137.682 -144.5095
2120.000000 137.823 -144.7998
2140.000000 137.914 -145.0727
2180.000000 138.119 -145.6257
2200.000000 138.216 -145.8705
2240.000000 138.404 -146.5704
2270.000000 138.549 -147.1512
2300.000000 138.692 -147.7744
2330.000000 138.833 -148.3950
2360.000000 138.972 -149.1401
2400.000000 139.137 -150.1001
2430.000000 139.263 -150.9222
2470.000000 139.418 -152.0268
2500.000000 139.530 -152.9537
2540.000000 139.669 -154.1865
2580.000000 139.801 -155.5119
2620.000000 139.910 -156.8624
2650.000000 139.991 -157.8764
2690.000000 140.076 -159.3371
2720.000000 140.143 -160.4763
2760.000000 140.208 -161.8958
2800.000000 140.255 -163.4013
2850.000000 140.305 -165.2238
2900.000000 140.330 -167.0439
2950.000000 140.321 -168.8304
3000.000000 140.314 -170.6054
3040.000000 140.281 -171.9792
3070.000000 140.261 -173.0184
3110.000000 140.208 -174.3236
3150.000000 140.157 -175.5584
3200.000000 140.074 -177.0745
3250.000000 139.988 -178.5046
3300.000000 139.887 -179.8671
3350.000000 139.774 178.8232
3400.000000 139.662 177.6259
3450.000000 139.544 176.4580
3500.000000 139.419 175.4323
3550.000000 139.284 174.4741
3600.000000 139.151 173.5201
3650.000000 139.021 172.6595
3700.000000 138.889 171.9301
3750.000000 138.753 171.1772
3820.000000 138.558 170.3015
3870.000000 138.425 169.6462
3950.000000 138.217 168.8026
4000.000000 138.077 168.3795
4060.000000 137.930 167.7430
4120.000000 137.765 167.3716
4180.000000 137.605 166.8717
4250.000000 137.428 166.5078
4310.000000 137.273 166.2462
4370.000000 137.124 165.9758
4440.000000 136.955 165.6172
4500.000000 136.796 165.4097
4550.000000 136.673 165.3034
4620.000000 136.511 165.2076
4680.000000 136.355 165.1145
4750.000000 136.183 165.0490
4820.000000 136.017 165.0966
4870.000000 135.899 165.1265
4940.000000 135.728 165.1655
5000.000000 135.581 165.3521
5080.000000 135.398 165.5068
5150.000000 135.214 165.7277
5220.000000 135.057 166.0513
5300.000000 134.862 166.5511
5380.000000 134.686 166.9811
5450.000000 134.513 167.4630
5520.000000 134.342 168.0315
5600.000000 134.171 168.8096
5700.000000 133.932 169.7797
5800.000000 133.739 170.8005
5900.000000 133.512 172.0871
6000.000000 133.284 173.5489
6080.000000 133.145 174.7294
6150.000000 133.019 176.0490
6220.000000 132.926 177.2607
6300.000000 132.807 178.7456
6400.000000 132.742 -179.1465
6500.000000 132.707 -177.2533
6600.000000 132.670 -175.5115
6700.000000 132.694 -174.1144
6800.000000 132.697 -172.6459
6900.000000 132.710 -170.9050
7000.000000 132.737 -169.4213
7100.000000 132.777 -167.7619
7200.000000 132.827 -166.1743
7300.000000 132.958 -164.7593
7400.000000 133.079 -163.5272
7500.000000 133.182 -161.9204
7620.000000 133.388 -160.5459
7750.000000 133.663 -159.1743
7880.000000 133.984 -158.3738
8000.000000 134.326 -157.8330
8120.000000 134.655 -157.6487
8250.000000 135.100 -158.1808
8380.000000 135.525 -159.4971
8500.000000 135.920 -161.5969
8620.000000 136.258 -164.5215
8750.000000 136.500 -168.4674
8850.000000 136.620 -171.9806
9000.000000 136.519 -177.7392
9120.000000 136.237 177.7726
9250.000000 135.802 173.7133
9380.000000 135.216 170.3881
9500.000000 134.624 168.3266
9620.000000 134.003 167.0302
9750.000000 133.365 166.3820
9880.000000 132.723 166.5244
10000.000000 132.222 167.3925
10150.000000 131.602 168.9380
10300.000000 131.097 170.7817
10440.000000 130.733 172.8112
10600.000000 130.302 175.4382
10750.000000 130.081 177.8602
10900.000000 129.832 -179.4997
11060.000000 129.676 -176.6118
11200.000000 129.652 -174.3960
11380.000000 129.562 -171.5276
11500.000000 129.596 -169.6830
11720.000000 129.690 -166.1593
11800.000000 129.700 -165.1579
12060.000000 129.855 -161.4982
12200.000000 129.954 -159.7379
12410.000000 130.271 -156.7002
12500.000000 130.370 -155.7225
12650.000000 130.719 -153.9051
12800.000000 131.139 -151.9655
13150.000000 132.537 -150.6315
13200.000000 132.815 -150.7983
13400.000000 133.906 -153.5727
13600.000000 135.137 -160.5583
13800.000000 135.917 -172.7230
14000.000000 135.654 172.0913
14300.000000 133.542 155.0404
14500.000000 131.757 149.5593
14750.000000 129.728 148.0063
15000.000000 128.021 149.0526
15250.000000 126.705 151.7432
15500.000000 125.794 154.9847
15750.000000 125.198 157.6723
16000.000000 124.609 160.1492
16250.000000 124.181 161.5526
16500.000000 123.926 161.1143
16750.000000 123.585 160.3739
17000.000000 123.027 157.4044
17250.000000 122.182 155.8311
17500.000000 121.222 153.5630
17750.000000 120.101 152.5358
18000.000000 119.213 153.1526
18250.000000 117.769 148.9479
18500.000000 115.795 152.8903
18750.000000 113.899 157.8943
19000.000000 113.354 158.8299
19250.000000 112.247 158.1830
19500.000000 109.372 149.8646
19750.000000 105.113 144.2094
