* Measurement data measured by REW V5.31.1
* Source: Microphone (USB Sound Device        ), MICROPHONE (Master Volume), L, volume: 0.850
* Format: 256k Log Swept Sine, 1 sweep at -20.0 dBFS with no timing reference
* Dated: Jul 16, 2024 12:03:17 AM
* REW Settings:
*  C-weighting compensation: Off
*  Target level: 75.0 dB
* Note: 
* Measurement: L HYDRO UUDD Jul 16
* Smoothing: None
* Frequency Step: 1/48 octave
* Start Frequency: 20.300 Hz
*
* Freq(Hz) SPL(dB) Phase(degrees)
20.299999 139.854 -149.2675
20.600000 139.895 -149.6895
20.900000 139.926 -150.0677
21.200001 139.957 -150.4339
21.400000 139.978 -150.6718
21.799999 140.027 -151.1348
22.000000 140.053 -151.3612
22.400000 140.111 -151.8057
22.700001 140.156 -152.1327
23.000000 140.201 -152.4545
23.299999 140.243 -152.7721
23.600000 140.282 -153.0883
24.000000 140.330 -153.5142
24.299999 140.364 -153.8428
24.700001 140.406 -154.2976
25.000000 140.436 -154.6490
25.400000 140.475 -155.1208
25.799999 140.514 -155.5793
26.200001 140.555 -156.0115
26.500000 140.586 -156.3182
26.900000 140.629 -156.7116
27.200001 140.662 -157.0025
27.600000 140.703 -157.3914
28.000000 140.740 -157.7815
28.500000 140.783 -158.2659
29.000000 140.824 -158.7482
29.500000 140.866 -159.2378
30.000000 140.908 -159.7367
30.400000 140.940 -160.1340
30.700001 140.963 -160.4264
31.100000 140.994 -160.8083
31.500000 141.023 -161.1855
32.000000 141.058 -161.6546
32.500000 141.090 -162.1138
33.000000 141.122 -162.5525
33.500000 141.156 -162.9799
34.000000 141.191 -163.4241
34.500000 141.225 -163.8987
35.000000 141.252 -164.3828
35.500000 141.276 -164.8409
36.000000 141.302 -165.2614
36.500000 141.332 -165.6656
37.000000 141.366 -166.0828
37.500000 141.398 -166.5207
38.200001 141.431 -167.1408
38.700001 141.449 -167.5681
39.500000 141.475 -168.2219
40.000000 141.495 -168.6261
40.599998 141.522 -169.1210
41.200001 141.547 -169.6283
41.799999 141.567 -170.1348
42.500000 141.584 -170.7031
43.099998 141.598 -171.1688
43.700001 141.617 -171.6275
44.400002 141.641 -172.1618
45.000000 141.661 -172.6154
45.500000 141.675 -172.9902
46.200001 141.689 -173.5189
46.799999 141.699 -173.9811
47.500000 141.709 -174.5254
48.200001 141.719 -175.0551
48.700001 141.725 -175.4080
49.400002 141.734 -175.8652
50.000000 141.743 -176.2621
50.799999 141.755 -176.8531
51.500000 141.762 -177.3915
52.200001 141.771 -177.9013
53.000000 141.780 -178.4589
53.799999 141.779 -178.9866
54.500000 141.778 -179.4399
55.200001 141.782 -179.9505
56.000000 141.783 179.4299
57.000000 141.783 178.7816
58.000000 141.786 178.1707
59.000000 141.772 177.5242
60.000000 141.760 176.9174
60.799999 141.756 176.4141
61.500000 141.747 175.9807
62.200001 141.738 175.5768
63.000000 141.730 175.1072
64.000000 141.717 174.4828
65.000000 141.700 173.8889
66.000000 141.686 173.2964
67.000000 141.671 172.6873
68.000000 141.656 172.0893
69.000000 141.643 171.5131
70.000000 141.632 170.9423
71.000000 141.618 170.3940
72.000000 141.605 169.8917
73.000000 141.587 169.4018
74.000000 141.561 168.9669
75.000000 141.531 168.5069
76.199997 141.481 167.8655
77.500000 141.443 167.1277
78.800003 141.426 166.4180
80.000000 141.402 165.9000
81.199997 141.362 165.4219
82.500000 141.307 164.7748
83.800003 141.268 164.1199
85.000000 141.237 163.5743
86.199997 141.200 163.0871
87.500000 141.158 162.4900
88.500000 141.122 162.0801
90.000000 141.065 161.4254
91.199997 141.022 160.9428
92.500000 140.978 160.3946
93.800003 140.924 159.9463
95.000000 140.883 159.4345
96.199997 140.837 158.9337
97.500000 140.776 158.4395
98.800003 140.740 158.1035
100.000000 140.661 157.5073
101.500000 140.618 157.1842
103.000000 140.552 156.4912
104.400002 140.486 155.7899
106.000000 140.416 155.5597
107.500000 140.432 154.9041
109.000000 140.257 154.7950
110.599998 140.225 154.0476
112.000000 140.162 153.6280
113.800003 140.133 152.4714
115.000000 139.975 152.8621
117.199997 139.998 153.1443
118.000000 139.921 152.2607
120.599998 139.927 150.0763
122.000000 139.437 150.4012
124.099998 139.399 149.1179
125.000000 139.510 149.2249
126.500000 139.364 149.1984
128.000000 139.525 148.4196
131.500000 139.201 148.7276
132.000000 139.203 148.6020
134.000000 139.120 148.6539
136.000000 139.011 147.6884
138.000000 138.890 147.7536
140.000000 138.846 146.8293
143.000000 138.710 146.5005
145.000000 138.580 146.7299
147.500000 138.431 145.9170
150.000000 138.378 145.7167
152.500000 138.180 145.5618
155.000000 138.115 144.9290
157.500000 137.968 144.9722
160.000000 137.840 144.6481
162.500000 137.714 144.4642
165.000000 137.591 144.2048
167.500000 137.463 144.0844
170.000000 137.344 143.8900
172.500000 137.231 143.7809
175.000000 137.122 143.4943
177.500000 136.985 143.5852
180.000000 136.901 143.4570
182.500000 136.746 143.3845
185.000000 136.644 143.3322
187.500000 136.527 143.2831
190.000000 136.416 143.3264
192.500000 136.296 143.2912
195.000000 136.167 143.3488
197.500000 136.098 143.4732
200.000000 135.974 143.3474
203.000000 135.825 143.3662
206.000000 135.693 143.7863
209.000000 135.550 144.0103
212.000000 135.476 143.9204
214.000000 135.366 144.0191
218.000000 135.222 144.1621
220.000000 135.137 144.4565
224.000000 134.983 144.5276
227.000000 134.875 144.9647
230.000000 134.751 145.1357
233.000000 134.642 145.3478
236.000000 134.541 145.7256
240.000000 134.410 146.0219
243.000000 134.300 146.2956
247.000000 134.168 146.8538
250.000000 134.091 147.1141
254.000000 133.952 147.4284
258.000000 133.830 147.9613
262.000000 133.699 148.4784
265.000000 133.619 148.7691
269.000000 133.516 149.3495
272.000000 133.428 149.6488
276.000000 133.334 150.1826
280.000000 133.248 150.5543
285.000000 133.148 151.5117
290.000000 132.996 151.9379
295.000000 132.918 152.8389
300.000000 132.818 153.4190
304.000000 132.730 153.9121
307.000000 132.678 154.3289
311.000000 132.606 154.9420
315.000000 132.532 155.5371
320.000000 132.450 156.2009
325.000000 132.366 156.8794
330.000000 132.303 157.5207
335.000000 132.251 158.1982
340.000000 132.179 158.8499
345.000000 132.115 159.5894
350.000000 132.043 160.1995
355.000000 132.006 160.8475
360.000000 131.948 161.5548
365.000000 131.900 162.1736
370.000000 131.853 162.7656
375.000000 131.802 163.4822
382.000000 131.772 164.2971
387.000000 131.727 164.8455
395.000000 131.659 165.8568
400.000000 131.635 166.4192
406.000000 131.597 167.1457
412.000000 131.565 167.8699
418.000000 131.536 168.4021
425.000000 131.511 169.2176
431.000000 131.485 169.8708
437.000000 131.456 170.4754
444.000000 131.427 171.2040
450.000000 131.421 171.7735
455.000000 131.414 172.3171
462.000000 131.359 173.0343
468.000000 131.371 173.7133
475.000000 131.360 174.4291
482.000000 131.328 174.9726
487.000000 131.302 175.5855
494.000000 131.320 176.2244
500.000000 131.298 176.4916
508.000000 131.274 177.2653
515.000000 131.296 177.7750
522.000000 131.282 178.7627
530.000000 131.244 179.2545
538.000000 131.279 179.9125
545.000000 131.236 -179.5580
552.000000 131.224 -178.8123
560.000000 131.267 -178.5406
570.000000 131.203 -177.4258
580.000000 131.236 -176.6651
590.000000 131.246 -176.0992
600.000000 131.288 -175.3198
608.000000 131.267 -174.5243
615.000000 131.272 -173.8678
622.000000 131.284 -173.1443
630.000000 131.226 -172.9897
640.000000 131.277 -172.0461
650.000000 131.269 -171.4498
660.000000 131.315 -170.5340
670.000000 131.323 -169.8707
680.000000 131.349 -168.9033
690.000000 131.362 -168.5967
700.000000 131.391 -167.9239
710.000000 131.403 -166.8782
720.000000 131.448 -166.4602
730.000000 131.478 -165.6137
740.000000 131.459 -164.9708
750.000000 131.523 -164.0630
762.000000 131.543 -163.1328
775.000000 131.589 -162.3753
788.000000 131.632 -161.3830
800.000000 131.679 -160.6195
812.000000 131.729 -159.7224
825.000000 131.795 -158.8046
838.000000 131.857 -158.0223
850.000000 131.931 -157.0679
862.000000 132.001 -156.6496
875.000000 132.088 -155.6748
885.000000 132.150 -155.2741
900.000000 132.238 -154.3917
912.000000 132.307 -153.7319
925.000000 132.421 -153.0585
938.000000 132.491 -152.3896
950.000000 132.555 -151.8067
962.000000 132.635 -151.0884
975.000000 132.713 -150.4815
988.000000 132.818 -149.8616
1000.000000 132.931 -149.1347
1015.000000 133.073 -148.2981
1030.000000 133.196 -147.9113
1044.000000 133.320 -147.4061
1060.000000 133.476 -146.8872
1075.000000 133.595 -146.5576
1090.000000 133.728 -146.1954
1106.000000 133.870 -145.8855
1120.000000 133.996 -145.5633
1138.000000 134.124 -145.3343
1150.000000 134.228 -145.2091
1172.000000 134.394 -145.0240
1180.000000 134.454 -144.7967
1206.000000 134.640 -144.5160
1220.000000 134.740 -144.5232
1241.000000 134.884 -144.4261
1250.000000 134.937 -144.4403
1265.000000 135.028 -144.3148
1280.000000 135.122 -144.3051
1315.000000 135.348 -144.2130
1320.000000 135.358 -144.2405
1340.000000 135.471 -144.2161
1360.000000 135.579 -144.1709
1380.000000 135.677 -144.2225
1400.000000 135.786 -144.1533
1430.000000 135.927 -144.1495
1450.000000 136.007 -144.1395
1475.000000 136.137 -144.1054
1500.000000 136.244 -144.1041
1525.000000 136.352 -144.0621
1550.000000 136.460 -143.9973
1575.000000 136.573 -144.0454
1600.000000 136.681 -143.9771
1625.000000 136.789 -143.9894
1650.000000 136.899 -143.9570
1675.000000 137.011 -143.9462
1700.000000 137.121 -143.9299
1725.000000 137.229 -143.9593
1750.000000 137.342 -143.9331
1775.000000 137.450 -143.9902
1800.000000 137.569 -143.9763
1825.000000 137.688 -144.0419
1850.000000 137.792 -144.1038
1875.000000 137.907 -144.1360
1900.000000 138.031 -144.2352
1925.000000 138.151 -144.3626
1950.000000 138.268 -144.5286
1975.000000 138.390 -144.6205
2000.000000 138.503 -144.8524
2030.000000 138.651 -145.0643
2060.000000 138.799 -145.3638
2090.000000 138.944 -145.6048
2120.000000 139.089 -146.0526
2140.000000 139.185 -146.2679
2180.000000 139.381 -146.8475
2200.000000 139.481 -147.2142
2240.000000 139.676 -147.8975
2270.000000 139.816 -148.4462
2300.000000 139.954 -149.0455
2330.000000 140.090 -149.7533
2360.000000 140.227 -150.4173
2400.000000 140.394 -151.4591
2430.000000 140.525 -152.2567
2470.000000 140.676 -153.4502
2500.000000 140.791 -154.3796
2540.000000 140.931 -155.6481
2580.000000 141.051 -156.9917
2620.000000 141.162 -158.4483
2650.000000 141.243 -159.4716
2690.000000 141.333 -160.9418
2720.000000 141.388 -162.0527
2760.000000 141.438 -163.5276
2800.000000 141.491 -165.0426
2850.000000 141.532 -166.9051
2900.000000 141.552 -168.7780
2950.000000 141.547 -170.6071
3000.000000 141.534 -172.4087
3040.000000 141.494 -173.8100
3070.000000 141.464 -174.8664
3110.000000 141.419 -176.2092
3150.000000 141.362 -177.4852
3200.000000 141.279 -179.0546
3250.000000 141.178 179.4998
3300.000000 141.071 178.0395
3350.000000 140.957 176.7617
3400.000000 140.833 175.5439
3450.000000 140.704 174.3909
3500.000000 140.576 173.2764
3550.000000 140.442 172.2851
3600.000000 140.296 171.4005
3650.000000 140.168 170.5215
3700.000000 140.017 169.6706
3750.000000 139.877 169.0205
3820.000000 139.677 168.0832
3870.000000 139.530 167.4758
3950.000000 139.310 166.5422
4000.000000 139.176 166.1885
4060.000000 139.007 165.6097
4120.000000 138.835 165.0376
4180.000000 138.669 164.7257
4250.000000 138.478 164.2527
4310.000000 138.330 163.9397
4370.000000 138.162 163.6634
4440.000000 137.982 163.4512
4500.000000 137.829 163.2452
4550.000000 137.692 163.1608
4620.000000 137.509 162.9977
4680.000000 137.353 162.8566
4750.000000 137.172 162.9091
4820.000000 137.004 162.9472
4870.000000 136.871 162.9738
4940.000000 136.686 163.1663
5000.000000 136.529 163.1513
5080.000000 136.330 163.4646
5150.000000 136.156 163.7138
5220.000000 135.982 164.0175
5300.000000 135.775 164.4348
5380.000000 135.570 164.9323
5450.000000 135.419 165.3870
5520.000000 135.231 165.9655
5600.000000 135.038 166.6519
5700.000000 134.780 167.6519
5800.000000 134.558 168.8467
5900.000000 134.313 169.9438
6000.000000 134.080 171.5007
6080.000000 133.925 172.7889
6150.000000 133.781 174.0993
6220.000000 133.684 175.4434
6300.000000 133.553 177.0826
6400.000000 133.457 179.1108
6500.000000 133.405 -178.9801
6600.000000 133.360 -177.2287
6700.000000 133.318 -175.5436
6800.000000 133.304 -173.8182
6900.000000 133.276 -172.3049
7000.000000 133.274 -170.4596
7100.000000 133.279 -168.8386
7200.000000 133.296 -166.8854
7300.000000 133.373 -165.2487
7400.000000 133.458 -163.4101
7500.000000 133.532 -161.8472
7620.000000 133.725 -159.8578
7750.000000 133.907 -158.0146
7880.000000 134.173 -156.3081
8000.000000 134.442 -154.8239
8120.000000 134.811 -153.6790
8250.000000 135.228 -152.9019
8380.000000 135.723 -152.7076
8500.000000 136.237 -153.0097
8620.000000 136.736 -154.3526
8750.000000 137.288 -156.7684
8850.000000 137.686 -159.4386
9000.000000 138.140 -164.7428
9120.000000 138.322 -169.9236
9250.000000 138.285 -175.8990
9380.000000 137.978 178.2417
9500.000000 137.507 173.7132
9620.000000 136.929 170.0932
9750.000000 136.218 167.3571
9880.000000 135.480 165.6716
10000.000000 134.842 165.0141
10150.000000 134.081 165.3093
10300.000000 133.402 166.1612
10440.000000 132.867 167.5385
10600.000000 132.347 169.4183
10750.000000 131.915 171.5764
10900.000000 131.552 174.1336
11060.000000 131.282 176.7880
11200.000000 131.084 178.7897
11380.000000 130.881 -178.1807
11500.000000 130.861 -176.3947
11720.000000 130.679 -173.3018
11800.000000 130.655 -171.9513
12060.000000 130.611 -168.1857
12200.000000 130.604 -166.0435
12410.000000 130.698 -162.9675
12500.000000 130.815 -161.3977
12650.000000 130.952 -158.8965
12800.000000 131.226 -157.0495
13150.000000 132.132 -153.1094
13200.000000 132.335 -152.5486
13400.000000 133.207 -152.4032
13600.000000 134.220 -154.6099
13800.000000 135.295 -160.3843
14000.000000 136.014 -170.6581
14300.000000 135.559 169.6021
14500.000000 134.266 159.6256
14750.000000 132.255 152.5658
15000.000000 130.439 150.9998
15250.000000 128.866 152.1533
15500.000000 127.640 154.3602
15750.000000 126.808 156.9799
16000.000000 126.210 159.7382
16250.000000 125.656 161.6456
16500.000000 125.361 162.4091
16750.000000 125.032 161.8127
17000.000000 124.706 160.2723
17250.000000 124.120 157.8060
17500.000000 123.303 155.6220
17750.000000 122.504 153.0556
18000.000000 121.402 151.7592
18250.000000 119.982 147.8592
18500.000000 117.878 146.4405
18750.000000 115.589 154.5956
19000.000000 115.629 156.0659
19250.000000 114.096 152.2186
19500.000000 111.272 145.0455
19750.000000 105.614 146.3063
