* Measurement data measured by REW V5.31.1
* Source: Microphone (USB Sound Device        ), MICROPHONE (Master Volume), R, volume: 0.850
* Format: 256k Log Swept Sine, 1 sweep at -20.0 dBFS with no timing reference
* Dated: Jul 16, 2024 12:15:55 AM
* REW Settings:
*  C-weighting compensation: Off
*  Target level: 75.0 dB
* Note: 
* Measurement: R HYDRO UDUD Jul 16
* Smoothing: None
* Frequency Step: 1/48 octave
* Start Frequency: 20.300 Hz
*
* Freq(Hz) SPL(dB) Phase(degrees)
20.299999 135.630 -137.0899
20.600000 135.699 -137.5878
20.900000 135.749 -138.0590
21.200001 135.788 -138.4967
21.400000 135.811 -138.7527
21.799999 135.862 -139.1804
22.000000 135.893 -139.3638
22.400000 135.969 -139.7195
22.700001 136.036 -140.0238
23.000000 136.105 -140.3889
23.299999 136.167 -140.8057
23.600000 136.219 -141.2444
24.000000 136.271 -141.7991
24.299999 136.303 -142.1474
24.700001 136.347 -142.5028
25.000000 136.389 -142.7139
25.400000 136.462 -142.9940
25.799999 136.547 -143.3618
26.200001 136.630 -143.8595
26.500000 136.682 -144.2971
26.900000 136.732 -144.9023
27.200001 136.757 -145.3207
27.600000 136.782 -145.7873
28.000000 136.810 -146.1528
28.500000 136.865 -146.5459
29.000000 136.938 -146.9719
29.500000 137.018 -147.4651
30.000000 137.092 -147.9930
30.400000 137.143 -148.4099
30.700001 137.176 -148.7100
31.100000 137.215 -149.0876
31.500000 137.250 -149.4396
32.000000 137.295 -149.8592
32.500000 137.344 -150.2922
33.000000 137.396 -150.7670
33.500000 137.445 -151.2690
34.000000 137.491 -151.7538
34.500000 137.535 -152.1988
35.000000 137.580 -152.6223
35.500000 137.625 -153.0513
36.000000 137.668 -153.4878
36.500000 137.710 -153.9221
37.000000 137.753 -154.3584
37.500000 137.796 -154.8070
38.200001 137.847 -155.4356
38.700001 137.877 -155.8548
39.500000 137.924 -156.4791
40.000000 137.955 -156.8697
40.599998 137.993 -157.3440
41.200001 138.034 -157.8140
41.799999 138.075 -158.2856
42.500000 138.119 -158.8443
43.099998 138.151 -159.3170
43.700001 138.180 -159.7766
44.400002 138.211 -160.3016
45.000000 138.235 -160.7460
45.500000 138.255 -161.1194
46.200001 138.279 -161.6566
46.799999 138.298 -162.1176
47.500000 138.323 -162.6331
48.200001 138.353 -163.1431
48.700001 138.373 -163.5098
49.400002 138.397 -163.9930
50.000000 138.418 -164.3718
50.799999 138.450 -164.9069
51.500000 138.472 -165.4180
52.200001 138.486 -165.8767
53.000000 138.511 -166.3466
53.799999 138.543 -166.9110
54.500000 138.555 -167.4424
55.200001 138.557 -167.8799
56.000000 138.570 -168.3094
57.000000 138.594 -168.9476
58.000000 138.613 -169.6259
59.000000 138.629 -170.2552
60.000000 138.640 -170.8307
60.799999 138.651 -171.2991
61.500000 138.659 -171.7219
62.200001 138.665 -172.1024
63.000000 138.677 -172.5069
64.000000 138.685 -173.0710
65.000000 138.680 -173.6494
66.000000 138.676 -174.2038
67.000000 138.685 -174.7506
68.000000 138.694 -175.3600
69.000000 138.688 -175.8743
70.000000 138.692 -176.3196
71.000000 138.693 -176.8198
72.000000 138.688 -177.3436
73.000000 138.670 -177.8985
74.000000 138.664 -178.3463
75.000000 138.668 -178.8476
76.199997 138.642 -179.3451
77.500000 138.634 179.9501
78.800003 138.626 179.4161
80.000000 138.630 178.9093
81.199997 138.585 178.3132
82.500000 138.577 177.7181
83.800003 138.567 177.2071
85.000000 138.535 176.6966
86.199997 138.512 176.0867
87.500000 138.495 175.5728
88.500000 138.469 175.2630
90.000000 138.436 174.6986
91.199997 138.418 174.1966
92.500000 138.385 173.7249
93.800003 138.362 173.0651
95.000000 138.328 172.7319
96.199997 138.305 172.4947
97.500000 138.272 171.9373
98.800003 138.211 171.5692
100.000000 138.197 171.0013
101.500000 138.182 170.1429
103.000000 138.210 170.4783
104.400002 138.049 169.8860
106.000000 138.006 168.6073
107.500000 138.126 168.5490
109.000000 137.925 168.7871
110.599998 137.911 167.7522
112.000000 137.913 167.0304
113.800003 137.782 166.8501
115.000000 137.758 166.6531
117.199997 137.731 166.4335
118.000000 137.740 165.6214
120.599998 137.695 165.0769
122.000000 137.534 164.9429
124.099998 137.427 164.2556
125.000000 137.459 164.5336
126.500000 137.435 163.7153
128.000000 137.353 163.6590
131.500000 137.272 162.9529
132.000000 137.231 162.4189
134.000000 137.233 162.5941
136.000000 137.076 161.7131
138.000000 136.973 161.5496
140.000000 136.890 161.2225
143.000000 136.827 160.6843
145.000000 136.763 160.4415
147.500000 136.686 159.7482
150.000000 136.596 159.7067
152.500000 136.457 159.4125
155.000000 136.372 159.5149
157.500000 136.244 158.7494
160.000000 136.166 158.7097
162.500000 136.078 158.0312
165.000000 135.995 157.9449
167.500000 135.964 157.7973
170.000000 135.864 157.4398
172.500000 135.750 157.6525
175.000000 135.722 157.6132
177.500000 135.661 157.0602
180.000000 135.509 157.0171
182.500000 135.416 157.5085
185.000000 135.359 157.7118
187.500000 135.289 157.6947
190.000000 135.210 157.3970
192.500000 135.126 157.0798
195.000000 135.000 156.8217
197.500000 134.879 156.8602
200.000000 134.776 156.8479
203.000000 134.669 157.0002
206.000000 134.540 156.8981
209.000000 134.445 157.0932
212.000000 134.344 157.1140
214.000000 134.273 157.0179
218.000000 134.162 157.2362
220.000000 134.109 157.3860
224.000000 133.972 157.5521
227.000000 133.912 157.7973
230.000000 133.828 157.7216
233.000000 133.729 157.9531
236.000000 133.621 158.1138
240.000000 133.522 158.5974
243.000000 133.457 158.6559
247.000000 133.317 158.8761
250.000000 133.256 159.1314
254.000000 133.164 159.6002
258.000000 133.067 159.9308
262.000000 132.969 160.2728
265.000000 132.911 160.5801
269.000000 132.815 160.9040
272.000000 132.741 161.1450
276.000000 132.646 161.5636
280.000000 132.582 161.9718
285.000000 132.504 162.4683
290.000000 132.391 163.1215
295.000000 132.286 163.5810
300.000000 132.226 164.0552
304.000000 132.189 164.6491
307.000000 132.127 164.9225
311.000000 132.069 165.3138
315.000000 132.016 165.7955
320.000000 131.935 166.3249
325.000000 131.884 166.8700
330.000000 131.832 167.4167
335.000000 131.764 168.1012
340.000000 131.718 168.6157
345.000000 131.663 169.1669
350.000000 131.614 169.6944
355.000000 131.572 170.2971
360.000000 131.528 170.8694
365.000000 131.472 171.4122
370.000000 131.445 171.8351
375.000000 131.395 172.4589
382.000000 131.375 173.1234
387.000000 131.341 173.7025
395.000000 131.280 174.5421
400.000000 131.265 175.0458
406.000000 131.233 175.6155
412.000000 131.203 176.2675
418.000000 131.191 176.8143
425.000000 131.161 177.5094
431.000000 131.141 178.1333
437.000000 131.119 178.6615
444.000000 131.097 179.3705
450.000000 131.075 179.8687
455.000000 131.052 -179.7187
462.000000 131.047 -179.0804
468.000000 131.043 -178.5062
475.000000 131.044 -177.8445
482.000000 131.021 -177.1176
487.000000 131.000 -176.8840
494.000000 131.016 -176.2081
500.000000 130.985 -175.7169
508.000000 130.999 -174.9583
515.000000 130.993 -174.3560
522.000000 130.990 -173.8472
530.000000 130.968 -173.2728
538.000000 130.981 -172.4707
545.000000 130.978 -171.9588
552.000000 130.973 -171.5215
560.000000 130.977 -170.7728
570.000000 131.027 -170.1730
580.000000 131.004 -169.0528
590.000000 131.041 -168.6686
600.000000 131.041 -167.6720
608.000000 131.054 -167.0613
615.000000 131.068 -166.5212
622.000000 131.068 -166.0532
630.000000 131.086 -165.4238
640.000000 131.108 -164.7107
650.000000 131.125 -163.9784
660.000000 131.148 -163.2901
670.000000 131.174 -162.5074
680.000000 131.205 -161.8880
690.000000 131.233 -161.1839
700.000000 131.271 -160.4469
710.000000 131.297 -159.7595
720.000000 131.335 -158.9697
730.000000 131.375 -158.3939
740.000000 131.401 -157.6895
750.000000 131.454 -156.9744
762.000000 131.505 -156.1779
775.000000 131.563 -155.3268
788.000000 131.630 -154.4865
800.000000 131.703 -153.7134
812.000000 131.783 -152.9593
825.000000 131.858 -152.2362
838.000000 131.936 -151.3706
850.000000 132.019 -150.8450
862.000000 132.082 -150.2382
875.000000 132.169 -149.4821
885.000000 132.231 -148.9358
900.000000 132.354 -148.1494
912.000000 132.441 -147.6697
925.000000 132.551 -147.1606
938.000000 132.635 -146.7104
950.000000 132.713 -146.2893
962.000000 132.766 -145.9169
975.000000 132.839 -145.3729
988.000000 132.910 -144.7426
1000.000000 132.998 -144.1292
1015.000000 133.104 -143.3695
1030.000000 133.229 -142.7585
1044.000000 133.357 -142.2333
1060.000000 133.481 -141.7016
1075.000000 133.635 -141.2725
1090.000000 133.766 -140.8740
1106.000000 133.907 -140.5431
1120.000000 134.029 -140.2236
1138.000000 134.193 -139.9191
1150.000000 134.294 -139.7640
1172.000000 134.492 -139.6023
1180.000000 134.554 -139.6052
1206.000000 134.757 -139.5279
1220.000000 134.844 -139.5527
1241.000000 134.980 -139.5077
1250.000000 135.041 -139.4737
1265.000000 135.133 -139.3745
1280.000000 135.227 -139.4235
1315.000000 135.437 -139.4011
1320.000000 135.462 -139.4184
1340.000000 135.574 -139.4726
1360.000000 135.676 -139.4645
1380.000000 135.777 -139.4942
1400.000000 135.879 -139.5423
1430.000000 136.016 -139.5145
1450.000000 136.110 -139.5107
1475.000000 136.211 -139.5465
1500.000000 136.324 -139.5706
1525.000000 136.433 -139.5764
1550.000000 136.537 -139.6289
1575.000000 136.641 -139.6112
1600.000000 136.744 -139.5863
1625.000000 136.854 -139.5751
1650.000000 136.949 -139.5523
1675.000000 137.049 -139.5187
1700.000000 137.145 -139.5507
1725.000000 137.258 -139.5625
1750.000000 137.347 -139.5434
1775.000000 137.454 -139.5770
1800.000000 137.556 -139.6206
1825.000000 137.658 -139.6397
1850.000000 137.768 -139.6844
1875.000000 137.873 -139.7177
1900.000000 137.973 -139.7474
1925.000000 138.083 -139.8287
1950.000000 138.196 -139.9040
1975.000000 138.290 -140.0283
2000.000000 138.419 -139.9965
2030.000000 138.533 -140.2762
2060.000000 138.660 -140.4048
2090.000000 138.791 -140.6282
2120.000000 138.927 -140.8623
2140.000000 139.016 -141.0694
2180.000000 139.189 -141.4114
2200.000000 139.278 -141.6150
2240.000000 139.450 -142.0293
2270.000000 139.585 -142.4275
2300.000000 139.710 -142.8117
2330.000000 139.841 -143.2862
2360.000000 139.967 -143.8090
2400.000000 140.133 -144.5322
2430.000000 140.259 -145.0945
2470.000000 140.421 -145.9215
2500.000000 140.540 -146.5967
2540.000000 140.682 -147.5432
2580.000000 140.803 -148.5207
2620.000000 140.940 -149.5884
2650.000000 141.031 -150.3971
2690.000000 141.134 -151.4838
2720.000000 141.208 -152.3104
2760.000000 141.298 -153.4825
2800.000000 141.378 -154.6882
2850.000000 141.463 -156.1736
2900.000000 141.534 -157.6069
2950.000000 141.588 -159.1199
3000.000000 141.634 -160.5556
3040.000000 141.639 -161.7899
3070.000000 141.657 -162.6260
3110.000000 141.657 -163.7259
3150.000000 141.658 -164.8392
3200.000000 141.642 -166.2094
3250.000000 141.620 -167.5290
3300.000000 141.587 -168.7766
3350.000000 141.540 -170.0126
3400.000000 141.495 -171.2014
3450.000000 141.438 -172.2637
3500.000000 141.369 -173.3745
3550.000000 141.300 -174.3857
3600.000000 141.235 -175.3409
3650.000000 141.163 -176.2237
3700.000000 141.087 -177.1136
3750.000000 141.007 -177.8976
3820.000000 140.895 -178.9983
3870.000000 140.813 -179.7089
3950.000000 140.673 179.2712
4000.000000 140.608 178.7205
4060.000000 140.490 177.8491
4120.000000 140.392 177.2151
4180.000000 140.291 176.6416
4250.000000 140.158 175.9449
4310.000000 140.060 175.3890
4370.000000 139.962 174.8724
4440.000000 139.842 174.3044
4500.000000 139.731 173.7957
4550.000000 139.643 173.4416
4620.000000 139.509 173.0082
4680.000000 139.408 172.6102
4750.000000 139.281 172.2021
4820.000000 139.136 171.8361
4870.000000 139.035 171.6190
4940.000000 138.899 171.3615
5000.000000 138.767 171.1457
5080.000000 138.617 170.9403
5150.000000 138.454 170.8182
5220.000000 138.308 170.7753
5300.000000 138.137 170.8080
5380.000000 137.963 170.8586
5450.000000 137.801 170.9344
5520.000000 137.649 171.2327
5600.000000 137.478 171.4799
5700.000000 137.254 172.0355
5800.000000 137.027 172.8615
5900.000000 136.836 173.6479
6000.000000 136.653 174.8447
6080.000000 136.511 175.7340
6150.000000 136.403 176.7304
6220.000000 136.333 177.6889
6300.000000 136.257 178.7247
6400.000000 136.184 -179.9731
6500.000000 136.125 -178.8449
6600.000000 136.090 -177.5647
6700.000000 136.030 -176.4716
6800.000000 136.030 -175.2731
6900.000000 136.022 -174.0309
7000.000000 136.038 -172.8060
7100.000000 136.102 -171.6242
7200.000000 136.174 -170.5728
7300.000000 136.280 -169.6012
7400.000000 136.417 -168.7878
7500.000000 136.575 -168.2074
7620.000000 136.767 -167.8292
7750.000000 137.029 -167.7194
7880.000000 137.312 -168.2170
8000.000000 137.591 -169.3637
8120.000000 137.810 -170.7355
8250.000000 138.019 -173.1763
8380.000000 138.161 -176.3295
8500.000000 138.175 -179.6362
8620.000000 138.067 176.7586
8750.000000 137.800 173.0458
8850.000000 137.512 170.3120
9000.000000 136.944 167.0026
9120.000000 136.400 164.8144
9250.000000 135.779 163.3876
9380.000000 135.159 162.7446
9500.000000 134.589 162.6729
9620.000000 134.050 163.0491
9750.000000 133.509 164.1566
9880.000000 133.019 165.5026
10000.000000 132.589 166.9196
10150.000000 132.156 169.1762
10300.000000 131.782 171.7206
10440.000000 131.503 174.2841
10600.000000 131.271 176.9741
10750.000000 131.099 179.6837
10900.000000 130.945 -177.6842
11060.000000 130.922 -174.9545
11200.000000 130.901 -172.8584
11380.000000 130.900 -170.2825
11500.000000 130.934 -168.6602
11720.000000 130.976 -165.0914
11800.000000 130.954 -163.9845
12060.000000 131.209 -158.8383
12200.000000 131.499 -156.1143
12410.000000 132.130 -152.9402
12500.000000 132.465 -151.8488
12650.000000 133.060 -151.1143
12800.000000 133.772 -150.6374
13150.000000 135.934 -155.1941
13200.000000 136.276 -157.2207
13400.000000 137.342 -168.9217
13600.000000 137.364 175.3328
13800.000000 136.158 161.1642
14000.000000 134.351 152.8427
14300.000000 131.783 148.5560
14500.000000 130.350 148.9822
14750.000000 128.798 150.5796
15000.000000 127.597 153.3550
15250.000000 126.637 156.2993
15500.000000 125.928 158.5580
15750.000000 125.268 160.3886
16000.000000 124.700 161.3796
16250.000000 124.237 161.5430
16500.000000 123.650 161.5248
16750.000000 122.868 160.6638
17000.000000 122.002 159.7919
17250.000000 120.969 160.5189
17500.000000 119.824 161.4595
17750.000000 118.658 163.1638
18000.000000 117.551 167.4178
18250.000000 116.590 171.6111
18500.000000 115.985 175.4504
18750.000000 115.274 175.3663
19000.000000 114.624 169.9656
19250.000000 110.286 160.6893
19500.000000 105.993 -176.9073
19750.000000 103.762 -146.5021
