* Measurement data measured by REW V5.31.1
* Source: Microphone (USB Sound Device        ), MICROPHONE (Master Volume), L, volume: 0.250
* Format: 256k Log Swept Sine, 1 sweep at -20.0 dBFS with no timing reference
* Dated: Oct 31, 2024 2:38:45 PM
* REW Settings:
*  C-weighting compensation: Off
*  Target level: 75.0 dB
* Note: 
* Measurement: L E20 340
* Smoothing: None
* Frequency Step: 1/48 octave
* Start Frequency: 20.300 Hz
*
* Freq(Hz) SPL(dB) Phase(degrees)
20.299999 121.134 -153.8483
20.600000 121.159 -154.6320
20.900000 121.175 -155.3369
21.200001 121.188 -156.0234
21.400000 121.198 -156.4693
21.799999 121.221 -157.3354
22.000000 121.235 -157.7595
22.400000 121.268 -158.6027
22.700001 121.294 -159.2417
23.000000 121.319 -159.8901
23.299999 121.338 -160.5390
23.600000 121.351 -161.1750
24.000000 121.361 -161.9838
24.299999 121.367 -162.5569
24.700001 121.376 -163.2934
25.000000 121.386 -163.8469
25.400000 121.401 -164.6087
25.799999 121.415 -165.3968
26.200001 121.424 -166.1864
26.500000 121.428 -166.7645
26.900000 121.433 -167.5114
27.200001 121.436 -168.0577
27.600000 121.438 -168.7712
28.000000 121.436 -169.4566
28.500000 121.432 -170.2453
29.000000 121.434 -170.9725
29.500000 121.443 -171.7193
30.000000 121.448 -172.5522
30.400000 121.439 -173.2554
30.700001 121.424 -173.7693
31.100000 121.401 -174.4031
31.500000 121.382 -174.9823
32.000000 121.369 -175.6859
32.500000 121.363 -176.4146
33.000000 121.352 -177.1431
33.500000 121.337 -177.8245
34.000000 121.321 -178.4702
34.500000 121.304 -179.1306
35.000000 121.281 -179.8110
35.500000 121.253 179.5391
36.000000 121.227 178.9513
36.500000 121.212 178.3958
37.000000 121.203 177.8214
37.500000 121.192 177.2128
38.200001 121.162 176.3327
38.700001 121.128 175.7060
39.500000 121.057 174.7742
40.000000 121.014 174.2705
40.599998 120.977 173.7057
41.200001 120.953 173.0917
41.799999 120.925 172.4199
42.500000 120.879 171.6651
43.099998 120.837 171.0859
43.700001 120.798 170.5332
44.400002 120.756 169.8889
45.000000 120.718 169.3292
45.500000 120.682 168.8533
46.200001 120.617 168.2049
46.799999 120.555 167.6992
47.500000 120.493 167.0812
48.200001 120.438 166.3286
48.700001 120.395 165.7937
49.400002 120.341 165.2466
50.000000 120.316 164.9136
50.799999 120.278 164.3852
51.500000 120.203 163.8893
52.200001 120.126 163.4369
53.000000 120.071 162.6870
53.799999 120.001 161.8094
54.500000 119.925 161.4105
55.200001 119.873 161.2494
56.000000 119.817 160.8740
57.000000 119.714 160.2404
58.000000 119.644 159.5614
59.000000 119.553 158.8058
60.000000 119.436 158.3695
60.799999 119.368 158.0013
61.500000 119.311 157.6003
62.200001 119.251 157.2530
63.000000 119.179 156.8944
64.000000 119.074 156.4001
65.000000 118.974 155.8802
66.000000 118.887 155.3918
67.000000 118.803 155.0239
68.000000 118.708 154.6285
69.000000 118.605 154.2459
70.000000 118.507 153.8186
71.000000 118.402 153.4733
72.000000 118.315 153.1369
73.000000 118.215 152.7667
74.000000 118.117 152.4982
75.000000 118.015 152.1846
76.199997 117.901 151.9771
77.500000 117.780 151.5384
78.800003 117.634 151.3513
80.000000 117.550 150.9850
81.199997 117.383 150.7893
82.500000 117.247 150.7596
83.800003 117.127 150.3062
85.000000 117.034 150.1361
86.199997 116.908 150.1340
87.500000 116.792 149.9753
88.500000 116.690 149.7769
90.000000 116.551 149.8255
91.199997 116.427 149.5904
92.500000 116.298 149.6239
93.800003 116.179 149.6331
95.000000 116.058 149.6842
96.199997 115.946 149.5313
97.500000 115.822 149.6599
98.800003 115.704 149.7070
100.000000 115.604 149.7071
101.500000 115.438 149.9644
103.000000 115.339 149.9191
104.400002 115.199 150.1014
106.000000 115.056 150.4360
107.500000 114.899 150.3157
109.000000 114.790 150.7639
110.599998 114.602 151.1637
112.000000 114.560 151.5393
113.800003 114.402 152.0146
115.000000 114.342 151.9944
117.199997 114.126 152.3785
118.000000 114.002 152.6094
120.599998 113.900 153.5088
122.000000 113.725 154.1335
124.099998 113.638 154.6552
125.000000 113.598 154.7690
126.500000 113.444 155.2405
128.000000 113.322 155.6995
131.500000 113.135 157.2053
132.000000 113.151 157.3898
134.000000 113.015 158.1198
136.000000 112.887 158.6854
138.000000 112.840 159.6686
140.000000 112.720 160.7283
143.000000 112.651 161.5592
145.000000 112.519 162.5672
147.500000 112.483 163.6909
150.000000 112.372 164.6429
152.500000 112.287 165.6840
155.000000 112.246 166.5239
157.500000 112.235 167.7879
160.000000 112.170 168.7934
162.500000 112.086 169.4935
165.000000 112.139 170.9438
167.500000 112.121 171.7068
170.000000 112.112 172.7911
172.500000 112.109 173.9108
175.000000 112.125 174.5792
177.500000 112.142 175.5306
180.000000 112.148 176.4128
182.500000 112.224 177.2356
185.000000 112.222 178.2410
187.500000 112.257 179.1785
190.000000 112.342 179.3651
192.500000 112.291 -179.0330
195.000000 112.377 -179.5029
197.500000 112.356 -178.7172
200.000000 112.502 -177.6728
203.000000 112.462 -177.4669
206.000000 112.662 -176.4895
209.000000 112.553 -175.9937
212.000000 112.763 -175.3894
214.000000 112.729 -175.1827
218.000000 112.748 -174.8252
220.000000 112.836 -174.2076
224.000000 112.966 -173.7354
227.000000 112.980 -173.2138
230.000000 113.068 -173.0967
233.000000 113.115 -172.7104
236.000000 113.188 -172.4752
240.000000 113.254 -172.2209
243.000000 113.316 -171.8717
247.000000 113.350 -171.7582
250.000000 113.393 -171.4277
254.000000 113.478 -171.1364
258.000000 113.561 -171.0592
262.000000 113.610 -170.7832
265.000000 113.651 -170.6427
269.000000 113.708 -170.5499
272.000000 113.757 -170.3696
276.000000 113.818 -170.2410
280.000000 113.835 -170.0190
285.000000 113.892 -170.0521
290.000000 113.929 -169.9143
295.000000 114.003 -169.7609
300.000000 114.036 -169.8182
304.000000 114.086 -169.7252
307.000000 114.111 -169.5720
311.000000 114.141 -169.7311
315.000000 114.164 -169.8115
320.000000 114.172 -169.4852
325.000000 114.216 -169.5892
330.000000 114.226 -169.4747
335.000000 114.262 -169.3975
340.000000 114.296 -169.4212
345.000000 114.305 -169.5997
350.000000 114.334 -169.3575
355.000000 114.325 -169.4626
360.000000 114.339 -169.3512
365.000000 114.349 -169.3059
370.000000 114.363 -169.0284
375.000000 114.381 -169.2215
382.000000 114.359 -169.0947
387.000000 114.364 -169.1663
395.000000 114.356 -168.9186
400.000000 114.401 -168.8783
406.000000 114.356 -168.9327
412.000000 114.377 -168.6598
418.000000 114.364 -168.5968
425.000000 114.354 -168.4775
431.000000 114.356 -168.3700
437.000000 114.347 -168.0903
444.000000 114.320 -168.0110
450.000000 114.344 -167.8803
455.000000 114.328 -167.5638
462.000000 114.347 -167.5749
468.000000 114.284 -167.2986
475.000000 114.320 -167.2966
482.000000 114.299 -166.9896
487.000000 114.306 -166.7616
494.000000 114.256 -166.5855
500.000000 114.267 -166.6000
508.000000 114.272 -166.1427
515.000000 114.248 -165.7972
522.000000 114.221 -165.5713
530.000000 114.226 -165.4127
538.000000 114.227 -164.8800
545.000000 114.194 -164.8656
552.000000 114.192 -164.3660
560.000000 114.178 -163.9169
570.000000 114.151 -163.7177
580.000000 114.176 -163.2716
590.000000 114.142 -162.5798
600.000000 114.148 -162.2987
608.000000 114.127 -161.8128
615.000000 114.131 -161.5096
622.000000 114.144 -161.1580
630.000000 114.137 -160.6371
640.000000 114.145 -160.1237
650.000000 114.120 -159.7159
660.000000 114.134 -159.2103
670.000000 114.123 -158.7775
680.000000 114.110 -158.1826
690.000000 114.137 -157.4541
700.000000 114.168 -156.9124
710.000000 114.167 -156.2536
720.000000 114.165 -155.7853
730.000000 114.201 -155.3826
740.000000 114.213 -154.5786
750.000000 114.235 -154.1232
762.000000 114.271 -153.1070
775.000000 114.301 -152.4880
788.000000 114.337 -151.6089
800.000000 114.387 -150.9777
812.000000 114.398 -150.2117
825.000000 114.509 -149.2858
838.000000 114.544 -148.5878
850.000000 114.608 -147.7908
862.000000 114.677 -147.3410
875.000000 114.738 -146.4174
885.000000 114.757 -145.8631
900.000000 114.911 -145.1027
912.000000 114.970 -144.4269
925.000000 115.036 -143.9905
938.000000 115.143 -143.1405
950.000000 115.240 -142.5368
962.000000 115.346 -142.3460
975.000000 115.424 -141.6300
988.000000 115.532 -140.9877
1000.000000 115.585 -140.1519
1015.000000 115.748 -140.0225
1030.000000 115.899 -139.6063
1044.000000 116.013 -139.2411
1060.000000 116.149 -138.5280
1075.000000 116.265 -138.3046
1090.000000 116.376 -137.9699
1106.000000 116.527 -137.5924
1120.000000 116.637 -137.3159
1138.000000 116.773 -137.2066
1150.000000 116.862 -137.0505
1172.000000 117.041 -136.8302
1180.000000 117.094 -136.7332
1206.000000 117.288 -136.4166
1220.000000 117.377 -136.4421
1241.000000 117.500 -136.2071
1250.000000 117.563 -136.3107
1265.000000 117.661 -136.1917
1280.000000 117.745 -136.1002
1315.000000 117.969 -135.9609
1320.000000 118.003 -136.0059
1340.000000 118.124 -135.9373
1360.000000 118.221 -135.9167
1380.000000 118.329 -135.7087
1400.000000 118.435 -135.5721
1430.000000 118.600 -135.5790
1450.000000 118.700 -135.4436
1475.000000 118.845 -135.4722
1500.000000 118.968 -135.3248
1525.000000 119.095 -135.2978
1550.000000 119.227 -135.3483
1575.000000 119.400 -135.1686
1600.000000 119.518 -135.2336
1625.000000 119.636 -135.3340
1650.000000 119.753 -135.2163
1675.000000 119.906 -135.3195
1700.000000 120.029 -135.2678
1725.000000 120.158 -135.3731
1750.000000 120.295 -135.3271
1775.000000 120.436 -135.4984
1800.000000 120.570 -135.5775
1825.000000 120.683 -135.6850
1850.000000 120.824 -135.9233
1875.000000 120.966 -136.0277
1900.000000 121.122 -136.1638
1925.000000 121.254 -136.5884
1950.000000 121.382 -136.7375
1975.000000 121.521 -137.0470
2000.000000 121.636 -137.2860
2030.000000 121.812 -137.7558
2060.000000 121.956 -138.2016
2090.000000 122.120 -138.7247
2120.000000 122.260 -139.2120
2140.000000 122.347 -139.6102
2180.000000 122.551 -140.5129
2200.000000 122.653 -140.8559
2240.000000 122.827 -141.8952
2270.000000 122.941 -142.5594
2300.000000 123.077 -143.4208
2330.000000 123.186 -144.2295
2360.000000 123.291 -145.0068
2400.000000 123.434 -146.1875
2430.000000 123.513 -147.0419
2470.000000 123.637 -148.3036
2500.000000 123.702 -149.1969
2540.000000 123.796 -150.4163
2580.000000 123.886 -151.7228
2620.000000 123.936 -152.9976
2650.000000 123.987 -153.8404
2690.000000 124.021 -155.0929
2720.000000 124.050 -155.9834
2760.000000 124.063 -157.1475
2800.000000 124.084 -158.3344
2850.000000 124.084 -159.6730
2900.000000 124.091 -160.9983
2950.000000 124.059 -162.2173
3000.000000 124.050 -163.4530
3040.000000 124.024 -164.2795
3070.000000 123.993 -164.9189
3110.000000 123.972 -165.6047
3150.000000 123.935 -166.3672
3200.000000 123.900 -167.3428
3250.000000 123.857 -168.1282
3300.000000 123.816 -168.9630
3350.000000 123.794 -169.5549
3400.000000 123.762 -170.2434
3450.000000 123.721 -170.9429
3500.000000 123.688 -171.5606
3550.000000 123.657 -172.0834
3600.000000 123.638 -172.6775
3650.000000 123.620 -173.1089
3700.000000 123.619 -173.7461
3750.000000 123.614 -174.1557
3820.000000 123.598 -174.8498
3870.000000 123.612 -175.4724
3950.000000 123.623 -176.4448
4000.000000 123.536 -176.8462
4060.000000 123.613 -177.7008
4120.000000 123.647 -178.4807
4180.000000 123.652 -179.3578
4250.000000 123.679 179.4672
4310.000000 123.679 178.6056
4370.000000 123.668 177.5719
4440.000000 123.650 176.3600
4500.000000 123.636 175.1254
4550.000000 123.592 174.3380
4620.000000 123.572 173.0849
4680.000000 123.488 171.8488
4750.000000 123.435 170.2721
4820.000000 123.340 168.8935
4870.000000 123.249 167.9233
4940.000000 123.094 166.4476
5000.000000 122.961 165.0720
5080.000000 122.729 163.8071
5150.000000 122.533 162.6703
5220.000000 122.331 161.5918
5300.000000 122.058 160.6058
5380.000000 121.751 159.8383
5450.000000 121.483 159.1886
5520.000000 121.202 158.7003
5600.000000 120.860 158.4544
5700.000000 120.460 158.2330
5800.000000 120.099 158.4029
5900.000000 119.688 159.0157
6000.000000 119.281 159.9542
6080.000000 119.037 160.4534
6150.000000 118.770 161.3069
6220.000000 118.550 162.5218
6300.000000 118.311 163.3148
6400.000000 118.041 165.0488
6500.000000 117.787 166.4831
6600.000000 117.528 168.4381
6700.000000 117.330 170.1068
6800.000000 117.118 172.2571
6900.000000 116.990 174.4142
7000.000000 116.847 176.7228
7100.000000 116.785 178.7969
7200.000000 116.713 -179.5598
7300.000000 116.700 -177.1548
7400.000000 116.719 -175.2825
7500.000000 116.842 -172.9942
7620.000000 116.880 -170.7472
7750.000000 116.978 -168.4712
7880.000000 117.198 -166.1909
8000.000000 117.476 -165.4619
8120.000000 117.888 -163.2322
8250.000000 118.327 -162.0051
8380.000000 118.817 -161.6755
8500.000000 119.403 -162.1349
8620.000000 119.972 -163.3475
8750.000000 120.618 -166.3979
8850.000000 121.046 -169.7639
9000.000000 121.511 -176.7235
9120.000000 121.588 176.4196
9250.000000 121.301 168.9897
9380.000000 120.735 162.8477
9500.000000 119.969 157.7516
9620.000000 119.128 154.9478
9750.000000 118.183 153.0773
9880.000000 117.341 152.2333
10000.000000 116.483 152.6368
10150.000000 115.653 154.1336
10300.000000 114.830 155.4627
10440.000000 114.324 158.6414
10600.000000 113.719 161.6379
10750.000000 113.243 164.8535
10900.000000 112.958 168.8601
11060.000000 112.753 172.4125
11200.000000 112.457 176.0761
11380.000000 112.454 179.7589
11500.000000 112.488 -177.1249
11720.000000 112.816 -172.8549
11800.000000 112.920 -171.4510
12060.000000 113.451 -168.7692
12200.000000 113.873 -168.0849
12410.000000 114.469 -168.6616
12500.000000 114.612 -169.3854
12650.000000 114.966 -171.9093
12800.000000 115.083 -174.9287
13150.000000 115.098 179.8197
13200.000000 115.151 178.6241
13400.000000 115.204 172.4029
13600.000000 114.589 163.8948
13800.000000 113.377 157.1467
14000.000000 111.891 155.1743
14300.000000 110.076 153.6186
14500.000000 108.959 155.0871
14750.000000 107.482 155.8021
15000.000000 106.187 162.0446
15250.000000 105.178 163.7522
15500.000000 103.962 168.8325
15750.000000 103.213 175.8145
16000.000000 102.566 -178.8501
16250.000000 102.172 -174.4165
16500.000000 102.130 -169.3184
16750.000000 101.265 -165.1434
17000.000000 101.602 -160.9183
17250.000000 100.758 -157.1223
17500.000000 101.275 -149.4147
17750.000000 101.105 -147.8264
18000.000000 100.798 -144.3655
18250.000000 99.866 -145.6612
18500.000000 100.323 -145.1245
18750.000000 99.170 -139.3979
19000.000000 98.290 -144.3672
19250.000000 98.043 -136.1813
19500.000000 97.269 -130.0104
19750.000000 97.332 -129.9861
