* Measurement data measured by REW V5.31.1
* Source: Microphone (USB Sound Device        ), MICROPHONE (Master Volume), L, volume: 0.250
* Format: 256k Log Swept Sine, 1 sweep at -20.0 dBFS with no timing reference
* Dated: Dec 2, 2024 4:10:43 PM
* REW Settings:
*  C-weighting compensation: Off
*  Target level: 75.0 dB
* Note: 
* Measurement: R ET142 BLUE S 417
* Smoothing: None
* Frequency Step: 1/48 octave
* Start Frequency: 20.300 Hz
*
* Freq(Hz) SPL(dB) Phase(degrees)
20.299999 118.647 -130.6177
20.600000 118.774 -134.2267
20.900000 118.761 -137.9451
21.200001 118.597 -141.3198
21.400000 118.438 -143.0527
21.799999 118.142 -145.1436
22.000000 118.082 -145.6519
22.400000 118.264 -146.4809
22.700001 118.630 -147.7751
23.000000 119.076 -149.9009
23.299999 119.493 -152.3918
23.600000 119.823 -154.6645
24.000000 120.098 -156.5006
24.299999 120.213 -156.6479
24.700001 120.311 -155.4209
25.000000 120.366 -153.9571
25.400000 120.395 -152.0234
25.799999 120.333 -150.5987
26.200001 120.193 -149.8683
26.500000 120.086 -149.9234
26.900000 119.999 -151.1014
27.200001 119.982 -152.9534
27.600000 119.985 -156.5231
28.000000 119.932 -160.5082
28.500000 119.705 -164.2153
29.000000 119.397 -164.8057
29.500000 119.282 -162.6223
30.000000 119.495 -160.4243
30.400000 119.755 -160.1773
30.700001 119.903 -160.8823
31.100000 119.987 -162.3557
31.500000 119.966 -163.6976
32.000000 119.920 -164.5345
32.500000 119.962 -164.7728
33.000000 120.056 -165.2698
33.500000 120.082 -166.1885
34.000000 120.009 -166.9723
34.500000 119.939 -167.2906
35.000000 119.964 -167.5973
35.500000 120.029 -168.4933
36.000000 120.014 -169.7337
36.500000 119.904 -170.4922
37.000000 119.825 -170.4624
37.500000 119.870 -170.4204
38.200001 119.974 -171.7001
38.700001 119.920 -172.9362
39.500000 119.780 -173.4616
40.000000 119.803 -173.6241
40.599998 119.817 -174.6209
41.200001 119.693 -175.5266
41.799999 119.604 -175.6025
42.500000 119.688 -176.3939
43.099998 119.650 -178.3340
43.700001 119.435 -179.4229
44.400002 119.372 -178.8177
45.000000 119.582 -179.0856
45.500000 119.669 179.5726
46.200001 119.506 178.2771
46.799999 119.391 178.8090
47.500000 119.529 179.0179
48.200001 119.623 177.6008
48.700001 119.534 176.6908
49.400002 119.331 176.7863
50.000000 119.260 177.4951
50.799999 119.324 177.1854
51.500000 119.326 175.3817
52.200001 119.203 173.9054
53.000000 119.147 174.0414
53.799999 119.258 174.2097
54.500000 119.222 173.5565
55.200001 119.052 173.1696
56.000000 118.958 172.8880
57.000000 118.949 171.7179
58.000000 118.915 171.1551
59.000000 118.911 170.8009
60.000000 118.828 170.0607
60.799999 118.750 169.5542
61.500000 118.693 169.1169
62.200001 118.629 168.8134
63.000000 118.589 168.7216
64.000000 118.600 168.2687
65.000000 118.530 167.4778
66.000000 118.428 167.1273
67.000000 118.385 166.7585
68.000000 118.339 166.2778
69.000000 118.272 165.8903
70.000000 118.200 165.4924
71.000000 118.127 165.1552
72.000000 118.089 164.9609
73.000000 118.054 164.5163
74.000000 117.989 164.1646
75.000000 117.955 163.8452
76.199997 117.859 163.3356
77.500000 117.799 162.9372
78.800003 117.735 162.4927
80.000000 117.657 162.3552
81.199997 117.565 161.8643
82.500000 117.518 161.4531
83.800003 117.451 161.2530
85.000000 117.371 161.0677
86.199997 117.315 160.6277
87.500000 117.234 160.4771
88.500000 117.177 160.4059
90.000000 117.109 160.0245
91.199997 117.050 159.7997
92.500000 116.947 159.6526
93.800003 116.895 159.4121
95.000000 116.828 159.1231
96.199997 116.739 158.9297
97.500000 116.660 158.5775
98.800003 116.641 158.5291
100.000000 116.585 158.0505
101.500000 116.555 158.2770
103.000000 116.364 157.9232
104.400002 116.410 158.3747
106.000000 116.209 157.8689
107.500000 116.140 157.4626
109.000000 116.036 156.9335
110.599998 116.112 157.2269
112.000000 115.853 156.9332
113.800003 115.927 157.0464
115.000000 115.927 157.3367
117.199997 115.724 157.0475
118.000000 115.696 156.9692
120.599998 115.681 156.5978
122.000000 115.536 156.5084
124.099998 115.588 156.2269
125.000000 115.565 156.4649
126.500000 115.467 156.3916
128.000000 115.332 156.0386
131.500000 115.188 156.0950
132.000000 115.141 156.3941
134.000000 115.083 156.4034
136.000000 115.072 155.2709
138.000000 115.036 155.9626
140.000000 114.903 157.7055
143.000000 114.839 156.3059
145.000000 114.727 156.2184
147.500000 114.532 155.8226
150.000000 114.406 156.3394
152.500000 114.430 155.4272
155.000000 114.230 155.3497
157.500000 114.271 155.8493
160.000000 114.236 156.3360
162.500000 114.087 156.4440
165.000000 113.944 156.5272
167.500000 113.888 156.4574
170.000000 113.811 157.0052
172.500000 113.690 157.0992
175.000000 113.583 156.9565
177.500000 113.522 157.4229
180.000000 113.455 157.6814
182.500000 113.361 158.1572
185.000000 113.354 158.6909
187.500000 113.337 159.2215
190.000000 113.254 159.4724
192.500000 113.315 159.3578
195.000000 113.221 159.0412
197.500000 113.353 159.7815
200.000000 113.295 159.7383
203.000000 113.192 159.5859
206.000000 113.164 159.4888
209.000000 113.051 159.7232
212.000000 112.957 159.8562
214.000000 112.931 159.9203
218.000000 112.805 160.2781
220.000000 112.771 160.1838
224.000000 112.682 160.4760
227.000000 112.650 160.8710
230.000000 112.627 160.8606
233.000000 112.545 161.0567
236.000000 112.488 161.3403
240.000000 112.369 161.7209
243.000000 112.370 161.8385
247.000000 112.334 162.5292
250.000000 112.209 162.5078
254.000000 112.167 162.7390
258.000000 112.090 163.0721
262.000000 112.054 163.3438
265.000000 112.010 163.7386
269.000000 112.007 164.0014
272.000000 111.892 164.0201
276.000000 111.868 164.9047
280.000000 111.782 165.2463
285.000000 111.632 165.0499
290.000000 111.708 166.2321
295.000000 111.483 165.7556
300.000000 111.514 166.1308
304.000000 111.463 167.0333
307.000000 111.448 167.1465
311.000000 111.324 167.3881
315.000000 111.283 168.1153
320.000000 111.256 168.8433
325.000000 111.288 168.5523
330.000000 111.235 169.1630
335.000000 111.190 169.7117
340.000000 111.151 170.0981
345.000000 111.083 170.6987
350.000000 111.015 170.6271
355.000000 110.968 171.2274
360.000000 110.973 172.0283
365.000000 110.932 172.3701
370.000000 110.913 172.7841
375.000000 110.870 173.3588
382.000000 110.778 173.6779
387.000000 110.755 174.3703
395.000000 110.699 174.9556
400.000000 110.677 175.2522
406.000000 110.684 176.0312
412.000000 110.645 176.4656
418.000000 110.584 177.2703
425.000000 110.632 177.2450
431.000000 110.555 178.4411
437.000000 110.472 178.4707
444.000000 110.449 179.1472
450.000000 110.531 179.9157
455.000000 110.394 179.8223
462.000000 110.404 179.9621
468.000000 110.512 -179.8801
475.000000 110.518 -177.4578
482.000000 110.350 -177.7156
487.000000 110.371 -177.4246
494.000000 110.345 -176.6057
500.000000 110.250 -176.3173
508.000000 110.253 -175.6322
515.000000 110.264 -175.0643
522.000000 110.273 -174.4076
530.000000 110.246 -173.8490
538.000000 110.282 -172.8021
545.000000 110.258 -172.2666
552.000000 110.235 -171.8536
560.000000 110.275 -171.4117
570.000000 110.248 -170.6920
580.000000 110.228 -169.6802
590.000000 110.210 -169.0832
600.000000 110.228 -168.1620
608.000000 110.257 -167.4381
615.000000 110.272 -167.2008
622.000000 110.283 -166.3322
630.000000 110.261 -165.5873
640.000000 110.293 -165.2466
650.000000 110.255 -164.1860
660.000000 110.260 -163.8016
670.000000 110.279 -162.8685
680.000000 110.279 -161.8019
690.000000 110.342 -161.3013
700.000000 110.390 -160.7006
710.000000 110.388 -159.4701
720.000000 110.414 -159.0760
730.000000 110.412 -157.7471
740.000000 110.463 -157.2759
750.000000 110.419 -156.5356
762.000000 110.528 -155.6147
775.000000 110.573 -155.0162
788.000000 110.615 -153.9616
800.000000 110.698 -152.6166
812.000000 110.772 -152.1226
825.000000 110.816 -151.2455
838.000000 110.893 -150.2635
850.000000 110.948 -149.4561
862.000000 111.038 -148.6415
875.000000 111.098 -147.9349
885.000000 111.191 -147.4605
900.000000 111.306 -146.4409
912.000000 111.355 -145.5504
925.000000 111.461 -144.9342
938.000000 111.561 -143.9634
950.000000 111.629 -143.4048
962.000000 111.774 -142.8312
975.000000 111.850 -142.1698
988.000000 111.978 -141.4372
1000.000000 111.948 -139.9918
1015.000000 112.207 -140.2653
1030.000000 112.344 -139.7923
1044.000000 112.460 -138.9671
1060.000000 112.574 -138.4619
1075.000000 112.699 -137.6905
1090.000000 112.874 -137.2160
1106.000000 112.960 -137.0198
1120.000000 113.090 -136.3738
1138.000000 113.250 -136.0315
1150.000000 113.370 -135.3717
1172.000000 113.515 -134.9786
1180.000000 113.629 -134.6957
1206.000000 113.803 -134.1609
1220.000000 113.934 -133.8810
1241.000000 114.145 -133.5658
1250.000000 114.193 -132.9959
1265.000000 114.303 -132.7823
1280.000000 114.379 -132.5801
1315.000000 114.686 -132.0228
1320.000000 114.741 -131.9083
1340.000000 114.899 -131.4820
1360.000000 115.025 -131.3758
1380.000000 115.184 -131.0334
1400.000000 115.338 -130.5098
1430.000000 115.606 -130.3089
1450.000000 115.807 -129.9087
1475.000000 116.001 -129.5840
1500.000000 116.200 -129.4335
1525.000000 116.420 -128.9579
1550.000000 116.632 -128.8081
1575.000000 116.857 -128.6144
1600.000000 117.079 -128.4816
1625.000000 117.339 -128.4318
1650.000000 117.565 -128.5791
1675.000000 117.761 -128.2936
1700.000000 118.036 -128.6181
1725.000000 118.275 -128.6970
1750.000000 118.535 -128.9323
1775.000000 118.767 -129.1866
1800.000000 119.030 -129.6300
1825.000000 119.311 -130.1163
1850.000000 119.560 -130.5925
1875.000000 119.817 -131.1360
1900.000000 120.083 -132.0197
1925.000000 120.324 -132.8625
1950.000000 120.592 -133.7920
1975.000000 120.834 -134.6295
2000.000000 121.018 -136.0092
2030.000000 121.363 -137.2921
2060.000000 121.639 -139.1169
2090.000000 121.878 -140.9467
2120.000000 122.117 -142.9897
2140.000000 122.254 -144.4591
2180.000000 122.506 -147.4227
2200.000000 122.604 -149.0069
2240.000000 122.769 -152.2427
2270.000000 122.833 -154.7053
2300.000000 122.886 -157.1624
2330.000000 122.892 -159.6097
2360.000000 122.876 -161.9128
2400.000000 122.797 -165.1145
2430.000000 122.699 -167.3331
2470.000000 122.548 -169.8623
2500.000000 122.406 -171.6252
2540.000000 122.195 -173.6412
2580.000000 122.023 -175.5711
2620.000000 121.823 -177.2177
2650.000000 121.673 -178.4668
2690.000000 121.455 179.9833
2720.000000 121.294 179.1602
2760.000000 121.064 178.1110
2800.000000 120.830 177.1348
2850.000000 120.559 176.2022
2900.000000 120.300 175.6804
2950.000000 120.083 175.2306
3000.000000 119.894 174.8514
3040.000000 119.763 174.8531
3070.000000 119.643 174.4803
3110.000000 119.541 174.2480
3150.000000 119.443 174.2266
3200.000000 119.307 173.8154
3250.000000 119.196 173.4901
3300.000000 119.124 173.0053
3350.000000 119.035 172.3105
3400.000000 118.880 171.4259
3450.000000 118.712 170.3048
3500.000000 118.442 169.3817
3550.000000 118.151 168.8090
3600.000000 117.800 169.0264
3650.000000 117.527 169.7670
3700.000000 117.284 171.0915
3750.000000 117.149 172.1830
3820.000000 116.976 173.7243
3870.000000 116.879 174.7682
3950.000000 116.760 176.9921
4000.000000 116.775 178.8309
4060.000000 116.892 179.5730
4120.000000 117.000 -179.3477
4180.000000 117.121 -178.7467
4250.000000 117.294 -178.0736
4310.000000 117.511 -178.2204
4370.000000 117.689 -178.2769
4440.000000 117.824 -178.7776
4500.000000 117.945 -179.6335
4550.000000 118.028 179.8336
4620.000000 118.141 178.5436
4680.000000 118.166 177.2975
4750.000000 118.150 175.8200
4820.000000 118.162 174.3573
4870.000000 118.087 173.5738
4940.000000 118.007 172.0829
5000.000000 117.943 170.7372
5080.000000 117.724 169.3809
5150.000000 117.528 167.5293
5220.000000 117.250 166.5341
5300.000000 116.974 165.8004
5380.000000 116.609 164.5406
5450.000000 116.219 164.5276
5520.000000 115.826 164.1589
5600.000000 115.344 165.3340
5700.000000 114.879 166.7173
5800.000000 114.501 169.1902
5900.000000 114.196 171.7411
6000.000000 113.988 174.0329
6080.000000 113.851 175.0833
6150.000000 113.774 176.6042
6220.000000 113.657 177.9617
6300.000000 113.470 178.8936
6400.000000 113.241 -179.0072
6500.000000 113.039 -177.4104
6600.000000 112.769 -173.6668
6700.000000 112.536 -170.4888
6800.000000 112.325 -166.8730
6900.000000 112.272 -161.3230
7000.000000 112.565 -155.9889
7100.000000 113.038 -151.7009
7200.000000 113.662 -148.7906
7300.000000 114.063 -147.3362
7400.000000 114.503 -145.1856
7500.000000 115.026 -143.5641
7620.000000 115.536 -141.4851
7750.000000 116.349 -140.0204
7880.000000 117.235 -139.2827
8000.000000 118.312 -138.8414
8120.000000 119.534 -141.1311
8250.000000 120.970 -146.3976
8380.000000 122.185 -157.1800
8500.000000 122.603 -170.7370
8620.000000 122.082 175.9025
8750.000000 120.787 164.8363
8850.000000 119.605 159.9164
9000.000000 117.888 156.2725
9120.000000 116.677 157.1782
9250.000000 115.571 158.1198
9380.000000 114.667 161.0624
9500.000000 114.079 163.5529
9620.000000 113.538 166.6971
9750.000000 113.128 169.8901
9880.000000 112.681 173.3444
10000.000000 112.431 176.5288
10150.000000 112.128 -178.3669
10300.000000 112.030 -171.6607
10440.000000 112.425 -165.1259
10600.000000 113.523 -157.4856
10750.000000 115.190 -156.4756
10900.000000 116.560 -160.8327
11060.000000 117.572 -166.9298
11200.000000 118.417 -174.8168
11380.000000 118.669 170.8234
11500.000000 118.144 160.7853
11720.000000 116.188 149.4794
11800.000000 115.382 147.1210
12060.000000 113.002 144.8344
12200.000000 111.982 146.5927
12410.000000 110.347 149.5634
12500.000000 109.905 150.7296
12650.000000 108.811 154.0668
12800.000000 107.862 157.5862
13150.000000 105.882 172.2145
13200.000000 105.488 174.8939
13400.000000 105.427 -171.0316
13600.000000 105.530 -160.2037
13800.000000 106.435 -154.6267
14000.000000 107.228 -148.9952
14300.000000 108.157 -141.6370
14500.000000 109.184 -138.8619
14750.000000 110.836 -136.0566
15000.000000 112.808 -138.1012
15250.000000 114.715 -148.5961
15500.000000 115.739 -167.5559
15750.000000 114.766 172.4040
16000.000000 112.730 161.5863
16250.000000 110.571 159.8014
16500.000000 109.303 161.5744
16750.000000 108.433 163.5466
17000.000000 107.749 166.1987
17250.000000 107.489 165.7682
17500.000000 107.555 166.8937
17750.000000 107.523 163.5785
18000.000000 107.048 161.6767
18250.000000 106.400 157.5829
18500.000000 105.531 150.8762
18750.000000 104.742 144.4380
19000.000000 103.331 136.3118
19250.000000 100.298 131.0630
19500.000000 98.100 131.2819
19750.000000 96.001 141.8397
