* Measurement data measured by REW V5.31.1
* Source: Microphone (USB Sound Device        ), MICROPHONE (Master Volume), L, volume: 0.250
* Format: 256k Log Swept Sine, 1 sweep at -20.0 dBFS with no timing reference
* Dated: Jul 31, 2024 1:44:41 PM
* REW Settings:
*  C-weighting compensation: Off
*  Target level: 75.0 dB
* Note: 
* Measurement: L 011 127
* Smoothing: None
* Frequency Step: 1/48 octave
* Start Frequency: 20.300 Hz
*
* Freq(Hz) SPL(dB) Phase(degrees)
20.299999 128.389 -167.6107
20.600000 128.402 -168.5084
20.900000 128.409 -169.3304
21.200001 128.415 -170.1604
21.400000 128.419 -170.7202
21.799999 128.429 -171.8494
22.000000 128.434 -172.4126
22.400000 128.442 -173.5187
22.700001 128.447 -174.3177
23.000000 128.451 -175.0846
23.299999 128.455 -175.8243
23.600000 128.459 -176.5464
24.000000 128.463 -177.4988
24.299999 128.464 -178.2145
24.700001 128.464 -179.1718
25.000000 128.461 -179.8858
25.400000 128.457 179.1782
25.799999 128.452 178.2670
26.200001 128.449 177.3778
26.500000 128.448 176.7207
26.900000 128.445 175.8532
27.200001 128.442 175.2084
27.600000 128.435 174.3580
28.000000 128.426 173.5197
28.500000 128.412 172.4877
29.000000 128.396 171.4710
29.500000 128.378 170.4733
30.000000 128.359 169.5015
30.400000 128.345 168.7431
30.700001 128.334 168.1833
31.100000 128.321 167.4447
31.500000 128.309 166.7119
32.000000 128.292 165.8023
32.500000 128.272 164.9024
33.000000 128.250 164.0170
33.500000 128.226 163.1485
34.000000 128.203 162.2922
34.500000 128.181 161.4385
35.000000 128.158 160.5840
35.500000 128.133 159.7394
36.000000 128.106 158.9190
36.500000 128.078 158.1226
37.000000 128.050 157.3367
37.500000 128.024 156.5538
38.200001 127.987 155.4759
38.700001 127.963 154.7222
39.500000 127.919 153.5261
40.000000 127.886 152.7987
40.599998 127.846 151.9621
41.200001 127.816 151.1143
41.799999 127.789 150.2079
42.500000 127.740 149.1858
43.099998 127.687 148.4869
43.700001 127.642 147.8888
44.400002 127.602 147.0665
45.000000 127.564 146.1839
45.500000 127.528 145.4112
46.200001 127.489 144.3884
46.799999 127.467 143.5793
47.500000 127.438 142.6975
48.200001 127.393 141.8729
48.700001 127.353 141.2911
49.400002 127.299 140.4482
50.000000 127.256 139.7112
50.799999 127.207 138.7643
51.500000 127.164 137.9916
52.200001 127.116 137.2407
53.000000 127.059 136.3255
53.799999 127.003 135.3167
54.500000 126.950 134.4574
55.200001 126.897 133.7252
56.000000 126.847 133.0012
57.000000 126.788 132.0294
58.000000 126.715 130.9584
59.000000 126.638 129.9406
60.000000 126.572 128.9343
60.799999 126.516 128.0995
61.500000 126.462 127.4160
62.200001 126.413 126.7719
63.000000 126.361 125.9979
64.000000 126.283 125.0673
65.000000 126.218 124.1990
66.000000 126.146 123.2241
67.000000 126.061 122.4014
68.000000 126.005 121.5731
69.000000 125.938 120.6125
70.000000 125.863 119.8254
71.000000 125.808 118.9900
72.000000 125.727 118.0398
73.000000 125.644 117.2992
74.000000 125.595 116.5324
75.000000 125.527 115.6195
76.199997 125.426 114.7497
77.500000 125.355 113.7438
78.800003 125.244 112.6978
80.000000 125.168 111.9760
81.199997 125.102 110.9869
82.500000 124.994 110.0482
83.800003 124.903 109.2698
85.000000 124.833 108.3528
86.199997 124.731 107.3811
87.500000 124.635 106.6316
88.500000 124.585 105.9810
90.000000 124.485 104.8786
91.199997 124.398 104.1522
92.500000 124.318 103.3832
93.800003 124.235 102.5179
95.000000 124.147 101.7505
96.199997 124.073 100.9680
97.500000 123.986 100.2026
98.800003 123.902 99.5764
100.000000 123.830 98.9307
101.500000 123.737 97.9833
103.000000 123.654 97.0285
104.400002 123.563 96.4356
106.000000 123.440 95.5255
107.500000 123.351 94.7567
109.000000 123.273 94.0068
110.599998 123.166 93.1489
112.000000 123.087 92.3713
113.800003 122.980 91.4875
115.000000 122.900 90.8968
117.199997 122.769 89.8691
118.000000 122.722 89.5479
120.599998 122.567 88.2947
122.000000 122.494 87.7123
124.099998 122.370 86.8487
125.000000 122.327 86.4199
126.500000 122.241 85.7306
128.000000 122.155 85.1112
131.500000 121.963 83.5937
132.000000 121.929 83.3935
134.000000 121.831 82.6758
136.000000 121.723 81.9448
138.000000 121.610 81.1693
140.000000 121.514 80.3615
143.000000 121.346 79.3182
145.000000 121.264 78.6239
147.500000 121.125 77.7369
150.000000 121.012 76.8942
152.500000 120.884 76.0305
155.000000 120.765 75.2589
157.500000 120.655 74.5656
160.000000 120.532 73.8058
162.500000 120.419 73.1157
165.000000 120.302 72.3329
167.500000 120.201 71.6333
170.000000 120.085 70.9633
172.500000 119.984 70.2570
175.000000 119.881 69.6639
177.500000 119.785 69.0442
180.000000 119.672 68.4127
182.500000 119.588 67.9590
185.000000 119.474 67.2734
187.500000 119.383 66.7730
190.000000 119.298 66.1998
192.500000 119.189 65.8255
195.000000 119.094 65.1959
197.500000 119.019 64.6859
200.000000 118.908 64.1393
203.000000 118.831 63.6711
206.000000 118.709 62.9946
209.000000 118.623 62.6241
212.000000 118.513 62.0479
214.000000 118.460 61.8004
218.000000 118.335 60.9977
220.000000 118.274 60.7599
224.000000 118.149 60.1044
227.000000 118.067 59.7563
230.000000 117.977 59.3538
233.000000 117.895 58.8962
236.000000 117.814 58.5547
240.000000 117.699 57.9518
243.000000 117.618 57.7033
247.000000 117.512 57.2522
250.000000 117.450 56.8426
254.000000 117.347 56.5676
258.000000 117.270 56.0309
262.000000 117.175 55.7942
265.000000 117.103 55.4664
269.000000 117.015 55.0760
272.000000 116.950 54.8834
276.000000 116.864 54.6031
280.000000 116.803 54.3251
285.000000 116.711 54.0385
290.000000 116.618 53.6599
295.000000 116.548 53.3073
300.000000 116.449 53.1532
304.000000 116.389 52.9020
307.000000 116.354 52.5902
311.000000 116.308 52.5659
315.000000 116.242 52.3596
320.000000 116.160 52.0724
325.000000 116.096 51.8719
330.000000 116.036 51.7426
335.000000 115.961 51.5710
340.000000 115.928 51.3419
345.000000 115.865 51.2397
350.000000 115.821 51.2440
355.000000 115.780 51.1938
360.000000 115.714 50.9320
365.000000 115.678 50.8622
370.000000 115.674 50.8258
375.000000 115.637 50.7526
382.000000 115.580 50.7234
387.000000 115.544 50.6294
395.000000 115.488 50.5427
400.000000 115.481 50.5625
406.000000 115.460 50.4981
412.000000 115.415 50.4285
418.000000 115.391 50.4681
425.000000 115.384 50.5755
431.000000 115.364 50.4847
437.000000 115.351 50.3052
444.000000 115.332 50.4608
450.000000 115.294 50.5347
455.000000 115.303 50.6048
462.000000 115.286 50.4591
468.000000 115.260 50.5923
475.000000 115.283 50.7122
482.000000 115.275 50.6370
487.000000 115.277 50.6137
494.000000 115.282 50.8823
500.000000 115.291 50.9428
508.000000 115.274 50.9005
515.000000 115.318 50.9404
522.000000 115.301 51.0884
530.000000 115.328 51.1242
538.000000 115.337 51.1954
545.000000 115.343 51.3930
552.000000 115.348 51.4677
560.000000 115.387 51.3203
570.000000 115.406 51.5840
580.000000 115.435 51.7923
590.000000 115.460 51.8226
600.000000 115.498 51.8129
608.000000 115.523 52.0175
615.000000 115.541 52.2135
622.000000 115.587 52.2280
630.000000 115.615 52.3730
640.000000 115.652 52.4745
650.000000 115.717 52.6667
660.000000 115.734 52.8018
670.000000 115.785 52.8914
680.000000 115.855 53.0872
690.000000 115.888 53.1904
700.000000 115.919 53.2944
710.000000 115.954 53.5544
720.000000 116.026 53.7486
730.000000 116.074 53.6666
740.000000 116.116 54.0539
750.000000 116.155 54.1013
762.000000 116.246 54.2867
775.000000 116.294 54.4191
788.000000 116.415 54.8347
800.000000 116.484 54.8472
812.000000 116.525 55.0543
825.000000 116.629 55.1795
838.000000 116.703 55.4630
850.000000 116.797 55.5073
862.000000 116.862 55.6064
875.000000 116.972 55.9857
885.000000 117.045 56.0222
900.000000 117.148 56.1939
912.000000 117.229 56.2655
925.000000 117.367 56.4987
938.000000 117.447 56.5992
950.000000 117.541 56.6601
962.000000 117.648 56.6550
975.000000 117.749 56.7286
988.000000 117.848 56.6422
1000.000000 117.862 56.6528
1015.000000 118.074 56.6049
1030.000000 118.198 56.4973
1044.000000 118.296 56.4474
1060.000000 118.403 56.2124
1075.000000 118.536 56.0614
1090.000000 118.650 55.8416
1106.000000 118.783 55.6079
1120.000000 118.857 55.3892
1138.000000 118.978 55.1302
1150.000000 119.077 54.9835
1172.000000 119.193 54.4779
1180.000000 119.230 54.2956
1206.000000 119.387 53.6526
1220.000000 119.448 53.3501
1241.000000 119.577 52.9762
1250.000000 119.616 52.7787
1265.000000 119.677 52.4212
1280.000000 119.739 52.2122
1315.000000 119.863 51.5447
1320.000000 119.897 51.3163
1340.000000 119.944 50.8986
1360.000000 120.020 50.6145
1380.000000 120.084 50.3220
1400.000000 120.141 50.0275
1430.000000 120.223 49.4895
1450.000000 120.262 49.2576
1475.000000 120.340 48.9146
1500.000000 120.392 48.6630
1525.000000 120.462 48.5227
1550.000000 120.505 48.2049
1575.000000 120.561 48.0698
1600.000000 120.601 47.9741
1625.000000 120.684 47.7851
1650.000000 120.736 47.5398
1675.000000 120.790 47.6680
1700.000000 120.848 47.5443
1725.000000 120.906 47.3879
1750.000000 120.978 47.4037
1775.000000 121.028 47.3961
1800.000000 121.106 47.4482
1825.000000 121.168 47.3533
1850.000000 121.250 47.3382
1875.000000 121.326 47.2928
1900.000000 121.397 47.4914
1925.000000 121.466 47.5612
1950.000000 121.556 47.6756
1975.000000 121.626 47.7251
2000.000000 121.690 47.9995
2030.000000 121.836 47.9644
2060.000000 121.969 48.2609
2090.000000 122.118 48.3799
2120.000000 122.275 48.7113
2140.000000 122.383 48.7464
2180.000000 122.623 49.0361
2200.000000 122.771 49.0376
2240.000000 123.070 48.8973
2270.000000 123.294 48.7343
2300.000000 123.553 48.3078
2330.000000 123.797 47.6645
2360.000000 124.035 47.0038
2400.000000 124.350 45.8528
2430.000000 124.573 44.7662
2470.000000 124.874 43.1980
2500.000000 125.095 41.9550
2540.000000 125.351 39.9010
2580.000000 125.600 37.6415
2620.000000 125.791 35.1019
2650.000000 125.913 33.0062
2690.000000 125.995 30.1820
2720.000000 126.026 27.9306
2760.000000 125.986 25.1767
2800.000000 125.889 22.7419
2850.000000 125.690 20.1997
2900.000000 125.509 18.2842
2950.000000 125.344 16.7516
3000.000000 125.193 15.4640
3040.000000 125.107 14.6038
3070.000000 125.015 13.9161
3110.000000 124.957 13.0686
3150.000000 124.871 12.1654
3200.000000 124.771 11.1033
3250.000000 124.645 10.1235
3300.000000 124.539 9.0612
3350.000000 124.406 8.2045
3400.000000 124.291 7.4420
3450.000000 124.160 6.7183
3500.000000 124.003 6.0265
3550.000000 123.888 5.4601
3600.000000 123.769 5.0571
3650.000000 123.631 4.6064
3700.000000 123.499 4.4381
3750.000000 123.382 4.3013
3820.000000 123.226 4.0221
3870.000000 123.143 3.9302
3950.000000 123.006 4.0179
4000.000000 122.853 4.0799
4060.000000 122.847 4.2967
4120.000000 122.770 4.3665
4180.000000 122.738 4.6062
4250.000000 122.671 4.7943
4310.000000 122.658 5.0801
4370.000000 122.644 5.1782
4440.000000 122.669 5.3427
4500.000000 122.665 5.6056
4550.000000 122.675 5.5401
4620.000000 122.722 5.7106
4680.000000 122.737 5.6984
4750.000000 122.767 5.7108
4820.000000 122.831 5.6665
4870.000000 122.868 5.3059
4940.000000 122.930 5.0809
5000.000000 122.936 4.4659
5080.000000 123.019 4.2700
5150.000000 123.064 3.8499
5220.000000 123.092 3.3624
5300.000000 123.146 2.5536
5380.000000 123.148 1.9187
5450.000000 123.157 1.1924
5520.000000 123.147 0.4298
5600.000000 123.119 -0.4847
5700.000000 123.108 -1.3112
5800.000000 123.029 -2.4803
5900.000000 122.968 -3.5168
6000.000000 122.909 -4.5906
6080.000000 122.809 -5.2657
6150.000000 122.739 -6.1231
6220.000000 122.657 -6.8231
6300.000000 122.530 -7.7844
6400.000000 122.362 -8.8705
6500.000000 122.145 -9.8000
6600.000000 121.893 -10.6919
6700.000000 121.619 -11.2148
6800.000000 121.317 -11.4500
6900.000000 121.048 -11.3253
7000.000000 120.775 -10.7917
7100.000000 120.633 -10.4316
7200.000000 120.516 -9.8704
7300.000000 120.374 -9.2281
7400.000000 120.294 -9.2218
7500.000000 120.235 -9.7560
7620.000000 120.079 -9.7379
7750.000000 119.941 -10.3868
7880.000000 119.799 -11.6486
8000.000000 119.601 -12.1284
8120.000000 119.312 -14.0327
8250.000000 118.948 -15.6913
8380.000000 118.474 -17.1476
8500.000000 117.897 -17.8108
8620.000000 117.181 -17.8392
8750.000000 116.452 -16.3923
8850.000000 115.833 -13.2862
9000.000000 115.328 -7.8312
9120.000000 115.437 -3.6162
9250.000000 115.709 -0.1841
9380.000000 116.000 -0.2652
9500.000000 116.046 -1.2844
9620.000000 115.994 -1.8635
9750.000000 115.746 -2.0861
9880.000000 115.496 -1.5870
10000.000000 115.273 -0.4460
10150.000000 115.025 0.9038
10300.000000 114.912 3.0889
10440.000000 114.684 4.4303
10600.000000 114.802 7.3419
10750.000000 114.902 9.2809
10900.000000 115.185 10.5578
11060.000000 115.485 11.7175
11200.000000 115.826 11.1569
11380.000000 116.257 9.6633
11500.000000 116.477 8.0956
11720.000000 116.679 3.3690
11800.000000 116.611 1.2065
12060.000000 116.357 -7.0276
12200.000000 115.959 -10.2610
12410.000000 115.033 -15.2937
12500.000000 114.664 -16.9865
12650.000000 113.960 -20.0961
12800.000000 113.004 -21.9196
13150.000000 110.791 -23.0569
13200.000000 110.546 -22.0994
13400.000000 109.068 -20.0815
13600.000000 108.147 -17.6882
13800.000000 106.680 -13.3934
14000.000000 106.435 -6.1587
14300.000000 105.404 -2.0698
14500.000000 104.569 1.2320
14750.000000 104.406 2.8217
15000.000000 103.983 3.5873
15250.000000 103.041 5.3008
15500.000000 102.271 7.6351
15750.000000 100.957 12.5476
16000.000000 100.038 15.6302
16250.000000 99.263 17.7850
16500.000000 98.730 23.1183
16750.000000 99.318 38.8416
17000.000000 101.435 36.9205
17250.000000 104.443 22.4700
17500.000000 106.935 -32.6121
17750.000000 99.690 -86.3401
18000.000000 94.559 -112.2668
18250.000000 87.994 -141.3672
18500.000000 86.572 -166.3857
18750.000000 89.053 173.8476
19000.000000 86.898 162.2434
19250.000000 89.963 151.3608
19500.000000 87.714 144.5035
19750.000000 89.022 138.6112
