* Measurement data measured by REW V5.31.1
* Source: EXCL: Microphone (USB Sound Device        ), MICROPHONE (Master Volume), L, volume: 0.250
* Format: 256k Log Swept Sine, 1 sweep at -20.0 dBFS with no timing reference
* Dated: Sep 14, 2024 11:04:06 AM
* REW Settings:
*  C-weighting compensation: Off
*  Target level: 75.0 dB
* Note: 
* Measurement: L TEA PRO 205
* Smoothing: None
* Frequency Step: 1/48 octave
* Start Frequency: 20.300 Hz
*
* Freq(Hz) SPL(dB) Phase(degrees)
20.299999 86.123 32.4387
20.600000 86.150 31.6784
20.900000 86.173 30.9922
21.200001 86.198 30.2979
21.400000 86.214 29.8265
21.799999 86.248 28.8737
22.000000 86.264 28.4012
22.400000 86.293 27.4883
22.700001 86.313 26.8446
23.000000 86.333 26.2360
23.299999 86.353 25.6496
23.600000 86.372 25.0718
24.000000 86.395 24.2987
24.299999 86.409 23.7145
24.700001 86.424 22.9393
25.000000 86.433 22.3693
25.400000 86.446 21.6299
25.799999 86.461 20.9091
26.200001 86.477 20.2003
26.500000 86.488 19.6768
26.900000 86.502 18.9948
27.200001 86.510 18.4984
27.600000 86.520 17.8558
28.000000 86.529 17.2260
28.500000 86.538 16.4438
29.000000 86.543 15.6697
29.500000 86.543 14.9204
30.000000 86.543 14.2022
30.400000 86.542 13.6408
30.700001 86.543 13.2210
31.100000 86.543 12.6593
31.500000 86.543 12.0966
32.000000 86.543 11.3981
32.500000 86.543 10.7109
33.000000 86.542 10.0420
33.500000 86.539 9.4001
34.000000 86.534 8.7890
34.500000 86.528 8.1979
35.000000 86.520 7.6117
35.500000 86.510 7.0276
36.000000 86.499 6.4570
36.500000 86.488 5.9050
37.000000 86.481 5.3595
37.500000 86.475 4.8056
38.200001 86.461 4.0271
38.700001 86.446 3.4972
39.500000 86.418 2.7200
40.000000 86.403 2.2584
40.599998 86.385 1.7015
41.200001 86.368 1.1286
41.799999 86.349 0.5468
42.500000 86.324 -0.1133
43.099998 86.303 -0.6402
43.700001 86.282 -1.1296
44.400002 86.261 -1.6788
45.000000 86.243 -2.1682
45.500000 86.226 -2.6052
46.200001 86.196 -3.2212
46.799999 86.168 -3.6811
47.500000 86.147 -4.1426
48.200001 86.136 -4.6686
48.700001 86.117 -5.1170
49.400002 86.067 -5.7215
50.000000 86.020 -6.1077
50.799999 85.988 -6.5324
51.500000 85.978 -7.0063
52.200001 85.956 -7.5601
53.000000 85.911 -8.1537
53.799999 85.863 -8.6954
54.500000 85.824 -9.1368
55.200001 85.792 -9.5219
56.000000 85.762 -9.9396
57.000000 85.716 -10.5138
58.000000 85.666 -11.1014
59.000000 85.626 -11.7104
60.000000 85.574 -12.2797
60.799999 85.526 -12.6786
61.500000 85.484 -13.0245
62.200001 85.447 -13.3822
63.000000 85.408 -13.7913
64.000000 85.355 -14.2770
65.000000 85.295 -14.7276
66.000000 85.242 -15.1516
67.000000 85.199 -15.6041
68.000000 85.142 -16.0388
69.000000 85.083 -16.4060
70.000000 85.032 -16.8371
71.000000 84.979 -17.2719
72.000000 84.927 -17.6623
73.000000 84.869 -18.0333
74.000000 84.810 -18.3891
75.000000 84.751 -18.7039
76.199997 84.689 -19.0589
77.500000 84.618 -19.5295
78.800003 84.546 -20.0111
80.000000 84.483 -20.3388
81.199997 84.397 -20.7810
82.500000 84.313 -21.1781
83.800003 84.263 -21.3776
85.000000 84.210 -21.5735
86.199997 84.111 -22.0153
87.500000 84.074 -22.5547
88.500000 83.972 -22.2677
90.000000 83.981 -22.9213
91.199997 83.808 -23.8249
92.500000 83.862 -22.8717
93.800003 83.737 -22.9504
95.000000 83.578 -23.5010
96.199997 83.508 -24.2168
97.500000 83.480 -24.3203
98.800003 83.399 -24.3053
100.000000 83.322 -24.5453
101.500000 83.240 -24.9254
103.000000 83.178 -25.0528
104.400002 83.105 -25.2244
106.000000 83.022 -25.3736
107.500000 82.943 -25.4963
109.000000 82.845 -25.6312
110.599998 82.763 -25.8035
112.000000 82.697 -25.7997
113.800003 82.596 -25.9618
115.000000 82.526 -26.0495
117.199997 82.432 -26.0832
118.000000 82.383 -26.1015
120.599998 82.258 -26.1975
122.000000 82.178 -26.3123
124.099998 82.102 -26.2649
125.000000 82.047 -26.2397
126.500000 81.970 -26.3200
128.000000 81.910 -26.2485
131.500000 81.750 -26.1661
132.000000 81.728 -26.1376
134.000000 81.636 -26.1242
136.000000 81.553 -25.9243
138.000000 81.448 -25.8538
140.000000 81.377 -25.8457
143.000000 81.255 -25.6647
145.000000 81.168 -25.4402
147.500000 81.078 -25.3223
150.000000 80.992 -25.1454
152.500000 80.896 -24.9041
155.000000 80.813 -24.6687
157.500000 80.728 -24.4049
160.000000 80.637 -24.2328
162.500000 80.559 -23.9424
165.000000 80.491 -23.6627
167.500000 80.423 -23.3789
170.000000 80.355 -23.1008
172.500000 80.282 -22.8635
175.000000 80.228 -22.4531
177.500000 80.170 -22.2294
180.000000 80.126 -21.4918
182.500000 79.988 -21.6311
185.000000 80.005 -21.2423
187.500000 79.926 -21.0537
190.000000 79.881 -20.6150
192.500000 79.829 -20.4464
195.000000 79.811 -20.0335
197.500000 79.750 -19.7680
200.000000 79.708 -19.4303
203.000000 79.657 -19.0653
206.000000 79.629 -18.6205
209.000000 79.589 -18.4498
212.000000 79.542 -18.0257
214.000000 79.514 -17.9193
218.000000 79.495 -17.1950
220.000000 79.451 -16.9074
224.000000 79.404 -16.7407
227.000000 79.380 -16.2733
230.000000 79.357 -15.9428
233.000000 79.341 -15.5303
236.000000 79.327 -15.3551
240.000000 79.286 -15.0005
243.000000 79.277 -14.6332
247.000000 79.239 -14.4063
250.000000 79.244 -14.0870
254.000000 79.216 -13.7340
258.000000 79.183 -13.2297
262.000000 79.179 -13.0590
265.000000 79.168 -12.7345
269.000000 79.150 -12.4554
272.000000 79.138 -12.1836
276.000000 79.129 -11.8544
280.000000 79.133 -11.6943
285.000000 79.113 -11.2334
290.000000 79.114 -11.0657
295.000000 79.081 -10.7010
300.000000 79.085 -10.4796
304.000000 79.076 -10.0007
307.000000 79.074 -9.9351
311.000000 79.050 -9.7730
315.000000 79.035 -9.4495
320.000000 79.031 -9.2326
325.000000 79.036 -8.9245
330.000000 79.010 -8.7469
335.000000 79.017 -8.4449
340.000000 78.989 -8.2936
345.000000 78.993 -8.0498
350.000000 78.989 -7.9098
355.000000 78.970 -7.6503
360.000000 78.956 -7.5932
365.000000 78.970 -7.4131
370.000000 78.937 -7.2684
375.000000 78.933 -7.0476
382.000000 78.938 -6.7187
387.000000 78.900 -6.5739
395.000000 78.884 -6.2570
400.000000 78.891 -6.2443
406.000000 78.884 -6.0174
412.000000 78.871 -5.7839
418.000000 78.865 -5.6811
425.000000 78.823 -5.3983
431.000000 78.815 -5.1837
437.000000 78.804 -5.0621
444.000000 78.807 -4.7126
450.000000 78.750 -4.6490
455.000000 78.735 -4.5845
462.000000 78.738 -4.4451
468.000000 78.695 -4.2361
475.000000 78.696 -3.9986
482.000000 78.634 -3.7798
487.000000 78.655 -3.5999
494.000000 78.614 -3.3213
500.000000 78.607 -3.2440
508.000000 78.595 -3.1865
515.000000 78.560 -2.7408
522.000000 78.529 -2.5675
530.000000 78.496 -2.2774
538.000000 78.488 -1.9217
545.000000 78.467 -1.7089
552.000000 78.437 -1.6908
560.000000 78.399 -1.2517
570.000000 78.376 -0.9429
580.000000 78.365 -0.6239
590.000000 78.298 -0.4009
600.000000 78.273 0.0929
608.000000 78.253 0.3716
615.000000 78.244 0.5828
622.000000 78.234 0.9358
630.000000 78.196 1.2521
640.000000 78.143 1.6658
650.000000 78.127 2.0572
660.000000 78.081 2.5946
670.000000 78.066 2.9967
680.000000 78.035 3.3311
690.000000 77.998 4.1077
700.000000 77.955 4.5800
710.000000 77.955 4.9843
720.000000 77.931 5.6702
730.000000 77.909 6.1522
740.000000 77.900 6.6239
750.000000 77.918 7.1897
762.000000 77.909 7.7115
775.000000 77.880 8.5995
788.000000 77.921 9.3005
800.000000 77.913 9.8357
812.000000 77.944 10.1590
825.000000 77.912 10.7565
838.000000 77.909 11.3879
850.000000 77.920 12.0479
862.000000 77.913 12.5707
875.000000 77.886 13.4087
885.000000 77.948 14.0782
900.000000 77.970 14.8722
912.000000 78.000 15.5157
925.000000 78.030 16.0053
938.000000 78.073 17.0435
950.000000 78.101 17.4014
962.000000 78.119 18.1599
975.000000 78.164 18.6879
988.000000 78.243 19.3910
1000.000000 78.338 20.0004
1015.000000 78.347 20.5028
1030.000000 78.417 21.1235
1044.000000 78.484 21.6587
1060.000000 78.568 22.3894
1075.000000 78.636 22.9733
1090.000000 78.714 23.5130
1106.000000 78.806 23.7258
1120.000000 78.867 24.0699
1138.000000 78.942 24.8251
1150.000000 78.997 25.0218
1172.000000 79.090 25.6884
1180.000000 79.129 25.8253
1206.000000 79.248 26.4438
1220.000000 79.282 26.7653
1241.000000 79.388 27.1519
1250.000000 79.414 27.3665
1265.000000 79.478 27.8453
1280.000000 79.563 28.1937
1315.000000 79.682 28.8698
1320.000000 79.703 28.9552
1340.000000 79.790 29.5714
1360.000000 79.853 30.0735
1380.000000 79.946 30.5047
1400.000000 80.027 30.8933
1430.000000 80.180 31.5452
1450.000000 80.268 32.0505
1475.000000 80.380 32.5979
1500.000000 80.534 33.1405
1525.000000 80.658 33.7623
1550.000000 80.808 34.0872
1575.000000 80.946 34.7170
1600.000000 81.107 35.2565
1625.000000 81.272 35.5397
1650.000000 81.424 35.9133
1675.000000 81.582 36.3361
1700.000000 81.768 36.5285
1725.000000 81.937 36.7761
1750.000000 82.126 36.8565
1775.000000 82.307 36.8675
1800.000000 82.489 36.8638
1825.000000 82.692 36.7753
1850.000000 82.871 36.6635
1875.000000 83.024 36.5066
1900.000000 83.244 36.0909
1925.000000 83.398 35.7734
1950.000000 83.590 35.3690
1975.000000 83.745 34.7829
2000.000000 83.933 34.4130
2030.000000 84.097 33.6171
2060.000000 84.274 32.8069
2090.000000 84.438 31.9805
2120.000000 84.607 30.9496
2140.000000 84.687 30.3170
2180.000000 84.885 28.8383
2200.000000 84.956 28.1904
2240.000000 85.097 26.7104
2270.000000 85.187 25.5663
2300.000000 85.275 24.4471
2330.000000 85.334 23.2111
2360.000000 85.396 22.0239
2400.000000 85.446 20.5306
2430.000000 85.447 19.3219
2470.000000 85.466 17.8288
2500.000000 85.453 16.6707
2540.000000 85.448 15.2631
2580.000000 85.393 14.0158
2620.000000 85.347 12.8133
2650.000000 85.307 11.8821
2690.000000 85.229 11.0002
2720.000000 85.155 10.2190
2760.000000 85.090 9.4024
2800.000000 84.991 8.6207
2850.000000 84.893 7.8381
2900.000000 84.782 7.1658
2950.000000 84.695 6.6995
3000.000000 84.579 6.4306
3040.000000 84.527 5.9636
3070.000000 84.459 5.8518
3110.000000 84.402 5.7311
3150.000000 84.358 5.5988
3200.000000 84.310 5.4862
3250.000000 84.259 5.2910
3300.000000 84.237 5.3195
3350.000000 84.223 5.1858
3400.000000 84.226 5.1275
3450.000000 84.239 5.1356
3500.000000 84.252 5.1087
3550.000000 84.267 4.8561
3600.000000 84.294 4.6560
3650.000000 84.336 4.4394
3700.000000 84.382 4.1826
3750.000000 84.392 3.9315
3820.000000 84.461 3.2751
3870.000000 84.505 2.6774
3950.000000 84.563 1.7563
4000.000000 84.630 1.2204
4060.000000 84.619 0.4526
4120.000000 84.624 -0.3944
4180.000000 84.633 -1.2732
4250.000000 84.621 -2.3540
4310.000000 84.600 -3.1395
4370.000000 84.600 -3.9474
4440.000000 84.544 -4.9489
4500.000000 84.525 -5.9128
4550.000000 84.487 -6.5851
4620.000000 84.421 -7.7189
4680.000000 84.373 -8.6908
4750.000000 84.297 -9.8965
4820.000000 84.146 -11.0382
4870.000000 84.054 -11.9860
4940.000000 83.891 -13.1203
5000.000000 83.718 -14.1567
5080.000000 83.449 -15.1557
5150.000000 83.188 -15.8941
5220.000000 82.901 -16.4278
5300.000000 82.547 -16.6871
5380.000000 82.190 -16.4220
5450.000000 81.897 -15.9341
5520.000000 81.568 -15.1185
5600.000000 81.253 -13.8219
5700.000000 80.931 -11.9243
5800.000000 80.654 -9.3217
5900.000000 80.458 -6.7695
6000.000000 80.366 -3.8313
6080.000000 80.342 -1.6477
6150.000000 80.382 0.1650
6220.000000 80.452 2.1072
6300.000000 80.628 4.0072
6400.000000 80.878 5.9783
6500.000000 81.238 7.3392
6600.000000 81.563 7.6761
6700.000000 81.940 7.4401
6800.000000 82.224 5.9052
6900.000000 82.382 4.0148
7000.000000 82.403 1.7287
7100.000000 82.314 -0.2081
7200.000000 82.111 -1.7466
7300.000000 81.868 -3.0842
7400.000000 81.551 -3.7500
7500.000000 81.256 -3.4047
7620.000000 81.025 -3.0590
7750.000000 80.749 -1.9427
7880.000000 80.614 -0.7585
8000.000000 80.480 0.1795
8120.000000 80.513 1.4238
8250.000000 80.614 2.0035
8380.000000 80.730 1.5815
8500.000000 80.839 0.8164
8620.000000 80.830 -0.7633
8750.000000 80.765 -2.6634
8850.000000 80.641 -4.4608
9000.000000 80.216 -6.8953
9120.000000 79.881 -8.1458
9250.000000 79.453 -8.9009
9380.000000 78.963 -8.6212
9500.000000 78.595 -8.5339
9620.000000 78.187 -7.4166
9750.000000 77.830 -6.2413
9880.000000 77.512 -4.6772
10000.000000 77.239 -3.7913
10150.000000 77.084 -1.3853
10300.000000 76.894 0.8110
10440.000000 76.834 2.9751
10600.000000 76.778 4.6602
10750.000000 76.797 6.6715
10900.000000 76.849 8.5416
11060.000000 77.027 9.6833
11200.000000 77.229 10.4972
11380.000000 77.393 10.0876
11500.000000 77.518 9.3225
11720.000000 77.441 8.5217
11800.000000 77.375 8.1678
12060.000000 77.169 7.8322
12200.000000 77.041 6.7238
12410.000000 76.972 7.3447
12500.000000 77.042 7.5089
12650.000000 76.958 6.8877
12800.000000 76.876 5.5165
13150.000000 76.256 2.7133
13200.000000 76.080 2.5505
13400.000000 75.656 1.6554
13600.000000 75.180 2.4459
13800.000000 74.928 2.7408
14000.000000 74.675 2.8480
14300.000000 74.495 2.8571
14500.000000 74.497 2.2529
14750.000000 74.619 -1.3168
15000.000000 74.471 -9.3775
15250.000000 73.433 -17.1563
15500.000000 72.150 -23.7923
15750.000000 70.466 -26.8418
16000.000000 68.623 -28.0465
16250.000000 67.059 -26.9782
16500.000000 65.796 -22.3204
16750.000000 64.572 -18.9335
17000.000000 63.465 -12.5245
17250.000000 62.863 -6.2029
17500.000000 61.619 2.9994
17750.000000 62.063 9.6536
18000.000000 61.822 11.3357
18250.000000 61.854 13.6609
18500.000000 61.775 19.5515
18750.000000 62.072 19.1587
19000.000000 62.426 20.1906
19250.000000 61.722 11.7925
19500.000000 61.384 10.7358
19750.000000 60.750 2.7246
