* Measurement data measured by REW V5.31.1
* Source: Microphone (USB Sound Device        ), MICROPHONE (Master Volume), L, volume: 0.250
* Format: 256k Log Swept Sine, 1 sweep at -20.0 dBFS with no timing reference
* Dated: Jul 31, 2024 1:23:35 PM
* REW Settings:
*  C-weighting compensation: Off
*  Target level: 75.0 dB
* Note: 
* Measurement: L TSMR MIRAI 001 120
* Smoothing: None
* Frequency Step: 1/48 octave
* Start Frequency: 20.300 Hz
*
* Freq(Hz) SPL(dB) Phase(degrees)
20.299999 121.902 178.7365
20.600000 121.902 177.7958
20.900000 121.895 176.9469
21.200001 121.889 176.1088
21.400000 121.886 175.5520
21.799999 121.886 174.4379
22.000000 121.887 173.8792
22.400000 121.891 172.7619
22.700001 121.892 171.9332
23.000000 121.889 171.1234
23.299999 121.883 170.3385
23.600000 121.875 169.5766
24.000000 121.864 168.5841
24.299999 121.855 167.8429
24.700001 121.842 166.8471
25.000000 121.831 166.0979
25.400000 121.815 165.1143
25.799999 121.798 164.1726
26.200001 121.783 163.2779
26.500000 121.776 162.6236
26.900000 121.770 161.7468
27.200001 121.765 161.0723
27.600000 121.753 160.1514
28.000000 121.734 159.2320
28.500000 121.702 158.1336
29.000000 121.670 157.1053
29.500000 121.645 156.1048
30.000000 121.624 155.0796
30.400000 121.606 154.2346
30.700001 121.590 153.5957
31.100000 121.566 152.7551
31.500000 121.540 151.9417
32.000000 121.508 150.9737
32.500000 121.478 150.0531
33.000000 121.450 149.1517
33.500000 121.422 148.2348
34.000000 121.390 147.2868
34.500000 121.352 146.3321
35.000000 121.313 145.4111
35.500000 121.279 144.5364
36.000000 121.253 143.6773
36.500000 121.227 142.8004
37.000000 121.192 141.9107
37.500000 121.146 141.0436
38.200001 121.077 139.9000
38.700001 121.036 139.1012
39.500000 120.989 137.7619
40.000000 120.960 136.8922
40.599998 120.914 135.8733
41.200001 120.859 134.9374
41.799999 120.807 134.0736
42.500000 120.758 133.0581
43.099998 120.718 132.1248
43.700001 120.670 131.1800
44.400002 120.607 130.1456
45.000000 120.554 129.3143
45.500000 120.513 128.6217
46.200001 120.458 127.6248
46.799999 120.407 126.7608
47.500000 120.345 125.7808
48.200001 120.286 124.8350
48.700001 120.248 124.1544
49.400002 120.195 123.1706
50.000000 120.144 122.3374
50.799999 120.071 121.3057
51.500000 120.010 120.4266
52.200001 119.946 119.5219
53.000000 119.872 118.5256
53.799999 119.807 117.5836
54.500000 119.750 116.7468
55.200001 119.683 115.9263
56.000000 119.606 115.0271
57.000000 119.528 113.7968
58.000000 119.437 112.5406
59.000000 119.340 111.5059
60.000000 119.261 110.4359
60.799999 119.192 109.4830
61.500000 119.127 108.7097
62.200001 119.066 108.0147
63.000000 118.998 107.2320
64.000000 118.906 106.2137
65.000000 118.817 105.1309
66.000000 118.729 104.0568
67.000000 118.640 103.0750
68.000000 118.547 102.1270
69.000000 118.462 101.1781
70.000000 118.377 100.1612
71.000000 118.274 99.2278
72.000000 118.189 98.4095
73.000000 118.123 97.5001
74.000000 118.045 96.6258
75.000000 117.959 95.7990
76.199997 117.844 94.7101
77.500000 117.729 93.6394
78.800003 117.618 92.5663
80.000000 117.507 91.5878
81.199997 117.418 90.7262
82.500000 117.311 89.8189
83.800003 117.195 88.8054
85.000000 117.088 87.9004
86.199997 117.001 87.0095
87.500000 116.895 86.0763
88.500000 116.821 85.3959
90.000000 116.705 84.3636
91.199997 116.611 83.4796
92.500000 116.511 82.6549
93.800003 116.393 81.8018
95.000000 116.308 81.1014
96.199997 116.214 80.4078
97.500000 116.117 79.6541
98.800003 116.015 78.7264
100.000000 115.924 77.9902
101.500000 115.827 77.1485
103.000000 115.704 76.2629
104.400002 115.615 75.5939
106.000000 115.496 74.6236
107.500000 115.364 73.9222
109.000000 115.289 73.1083
110.599998 115.166 72.3289
112.000000 115.067 71.6888
113.800003 114.951 70.9061
115.000000 114.863 70.2568
117.199997 114.750 69.3402
118.000000 114.685 68.8962
120.599998 114.489 67.8350
122.000000 114.426 67.1781
124.099998 114.250 66.3374
125.000000 114.218 66.0372
126.500000 114.126 65.4192
128.000000 114.063 64.5521
131.500000 113.836 63.5801
132.000000 113.811 63.4974
134.000000 113.659 62.9532
136.000000 113.584 61.8902
138.000000 113.514 61.4402
140.000000 113.331 60.7709
143.000000 113.216 59.8289
145.000000 113.117 59.2217
147.500000 112.969 58.5709
150.000000 112.870 57.7565
152.500000 112.738 57.0189
155.000000 112.627 56.3456
157.500000 112.504 55.8950
160.000000 112.393 55.1617
162.500000 112.290 54.5113
165.000000 112.172 54.0710
167.500000 112.036 53.5171
170.000000 111.963 53.1744
172.500000 111.873 52.6549
175.000000 111.772 52.3851
177.500000 111.660 51.6515
180.000000 111.594 51.4541
182.500000 111.479 50.8618
185.000000 111.429 50.5720
187.500000 111.312 50.1401
190.000000 111.224 49.9178
192.500000 111.158 49.3808
195.000000 111.060 49.1506
197.500000 110.988 48.8775
200.000000 110.920 48.5552
203.000000 110.842 48.1295
206.000000 110.749 47.9872
209.000000 110.665 47.6574
212.000000 110.543 47.2251
214.000000 110.541 47.2863
218.000000 110.427 46.5465
220.000000 110.365 46.5547
224.000000 110.307 46.1694
227.000000 110.203 46.0320
230.000000 110.152 45.9643
233.000000 110.077 45.5990
236.000000 110.009 45.3037
240.000000 109.915 45.2982
243.000000 109.878 44.9530
247.000000 109.827 45.0406
250.000000 109.799 44.6723
254.000000 109.751 44.4805
258.000000 109.636 44.3757
262.000000 109.591 44.3837
265.000000 109.558 44.1744
269.000000 109.542 44.1575
272.000000 109.431 44.0403
276.000000 109.413 43.5907
280.000000 109.339 43.6093
285.000000 109.302 43.7020
290.000000 109.263 43.5026
295.000000 109.179 43.6503
300.000000 109.120 43.5223
304.000000 109.125 43.5533
307.000000 109.120 43.4714
311.000000 109.083 43.5166
315.000000 109.043 43.3365
320.000000 108.974 43.6030
325.000000 108.990 43.4178
330.000000 108.962 43.7798
335.000000 108.967 43.3847
340.000000 108.932 43.2732
345.000000 108.946 43.5029
350.000000 108.916 43.8429
355.000000 108.899 43.8123
360.000000 108.841 43.8166
365.000000 108.890 43.9232
370.000000 108.841 43.9585
375.000000 108.862 44.2563
382.000000 108.857 44.2001
387.000000 108.857 44.1890
395.000000 108.870 44.3323
400.000000 108.861 44.3949
406.000000 108.856 44.2167
412.000000 108.866 44.7543
418.000000 108.922 44.7711
425.000000 108.881 44.8402
431.000000 108.914 44.9110
437.000000 108.926 44.9152
444.000000 108.942 45.1428
450.000000 108.916 45.5222
455.000000 108.939 45.7213
462.000000 108.944 45.7730
468.000000 109.016 45.9680
475.000000 109.076 45.7748
482.000000 109.084 46.3670
487.000000 109.054 45.9893
494.000000 109.075 46.3670
500.000000 109.077 46.3328
508.000000 109.142 46.2283
515.000000 109.196 46.5659
522.000000 109.197 46.7245
530.000000 109.268 47.0055
538.000000 109.283 47.3947
545.000000 109.288 47.1244
552.000000 109.373 47.4209
560.000000 109.396 47.5718
570.000000 109.421 47.7986
580.000000 109.491 47.9468
590.000000 109.558 48.3409
600.000000 109.611 48.4628
608.000000 109.634 48.7271
615.000000 109.683 48.5281
622.000000 109.735 48.6674
630.000000 109.776 48.8568
640.000000 109.773 49.1687
650.000000 109.888 49.3297
660.000000 109.915 49.9305
670.000000 109.991 49.8652
680.000000 110.054 50.0566
690.000000 110.093 50.0229
700.000000 110.211 50.2611
710.000000 110.266 50.5142
720.000000 110.272 50.6216
730.000000 110.354 51.1401
740.000000 110.410 51.1134
750.000000 110.449 51.6701
762.000000 110.544 51.7852
775.000000 110.606 51.7287
788.000000 110.733 52.2725
800.000000 110.783 52.6516
812.000000 110.939 52.6917
825.000000 111.015 53.2556
838.000000 111.100 53.4764
850.000000 111.197 53.6229
862.000000 111.264 53.2704
875.000000 111.367 53.9468
885.000000 111.501 54.0013
900.000000 111.580 54.3529
912.000000 111.694 54.3536
925.000000 111.834 54.8875
938.000000 111.892 54.9777
950.000000 112.015 55.1648
962.000000 112.104 54.8734
975.000000 112.237 55.4855
988.000000 112.359 55.2282
1000.000000 112.459 55.9213
1015.000000 112.566 55.2758
1030.000000 112.733 55.0950
1044.000000 112.826 55.4928
1060.000000 112.962 55.2134
1075.000000 113.102 55.0007
1090.000000 113.194 54.6924
1106.000000 113.376 54.7446
1120.000000 113.485 54.2524
1138.000000 113.576 54.4142
1150.000000 113.655 54.1110
1172.000000 113.825 53.6987
1180.000000 113.879 53.7277
1206.000000 114.048 53.0553
1220.000000 114.125 52.7891
1241.000000 114.247 52.5645
1250.000000 114.288 52.2531
1265.000000 114.338 51.7652
1280.000000 114.433 51.5903
1315.000000 114.596 50.8878
1320.000000 114.618 50.7582
1340.000000 114.709 50.5597
1360.000000 114.743 50.1570
1380.000000 114.839 49.8296
1400.000000 114.894 49.6870
1430.000000 115.022 49.1058
1450.000000 115.058 48.9443
1475.000000 115.169 48.6331
1500.000000 115.238 48.5315
1525.000000 115.274 48.0765
1550.000000 115.357 47.8698
1575.000000 115.398 47.6986
1600.000000 115.506 47.5984
1625.000000 115.568 47.5229
1650.000000 115.654 47.0899
1675.000000 115.690 47.1055
1700.000000 115.798 47.0229
1725.000000 115.848 46.8725
1750.000000 115.928 47.0308
1775.000000 115.956 46.8269
1800.000000 116.062 46.8250
1825.000000 116.145 46.8211
1850.000000 116.232 46.6929
1875.000000 116.278 46.8735
1900.000000 116.385 47.0976
1925.000000 116.470 46.9359
1950.000000 116.543 46.7460
1975.000000 116.665 46.9143
2000.000000 116.705 46.8095
2030.000000 116.852 47.4495
2060.000000 116.987 47.3709
2090.000000 117.125 47.5604
2120.000000 117.293 47.7886
2140.000000 117.414 47.7796
2180.000000 117.672 48.0809
2200.000000 117.824 48.0334
2240.000000 118.115 47.9338
2270.000000 118.366 47.6200
2300.000000 118.606 47.2034
2330.000000 118.869 46.3057
2360.000000 119.095 45.6826
2400.000000 119.415 44.4563
2430.000000 119.639 43.2990
2470.000000 119.922 41.7913
2500.000000 120.126 40.2716
2540.000000 120.404 38.2700
2580.000000 120.614 36.0891
2620.000000 120.810 33.4710
2650.000000 120.912 31.3473
2690.000000 121.012 28.4598
2720.000000 121.042 26.1905
2760.000000 121.017 23.5434
2800.000000 120.909 20.8802
2850.000000 120.697 18.1474
2900.000000 120.524 16.1946
2950.000000 120.318 14.6219
3000.000000 120.133 13.4515
3040.000000 120.034 12.3564
3070.000000 119.974 11.9363
3110.000000 119.865 10.9194
3150.000000 119.784 9.9846
3200.000000 119.659 8.9409
3250.000000 119.539 7.8899
3300.000000 119.395 7.0380
3350.000000 119.271 6.1344
3400.000000 119.124 5.3203
3450.000000 118.954 4.6676
3500.000000 118.883 3.9951
3550.000000 118.733 3.4846
3600.000000 118.581 3.1055
3650.000000 118.472 2.8309
3700.000000 118.315 2.5323
3750.000000 118.167 2.1102
3820.000000 118.038 2.0984
3870.000000 117.935 2.1201
3950.000000 117.786 2.1707
4000.000000 117.727 3.2239
4060.000000 117.597 2.5717
4120.000000 117.529 2.6021
4180.000000 117.481 2.9531
4250.000000 117.390 3.1057
4310.000000 117.364 3.3299
4370.000000 117.349 3.5282
4440.000000 117.341 3.8058
4500.000000 117.356 4.0727
4550.000000 117.327 3.8672
4620.000000 117.381 4.3201
4680.000000 117.360 4.1359
4750.000000 117.351 4.4695
4820.000000 117.380 4.3873
4870.000000 117.446 4.1130
4940.000000 117.498 4.2429
5000.000000 117.520 4.1887
5080.000000 117.590 3.7527
5150.000000 117.619 3.3998
5220.000000 117.653 2.7186
5300.000000 117.651 2.3459
5380.000000 117.689 1.8421
5450.000000 117.670 1.3058
5520.000000 117.659 0.6877
5600.000000 117.660 0.1394
5700.000000 117.658 -0.5409
5800.000000 117.604 -1.5158
5900.000000 117.591 -2.4251
6000.000000 117.508 -3.3134
6080.000000 117.405 -3.7986
6150.000000 117.384 -4.5448
6220.000000 117.332 -4.9176
6300.000000 117.230 -5.8453
6400.000000 117.099 -7.0349
6500.000000 116.954 -8.0162
6600.000000 116.690 -8.5774
6700.000000 116.468 -9.3656
6800.000000 116.209 -9.5783
6900.000000 115.904 -9.3874
7000.000000 115.815 -9.1538
7100.000000 115.525 -9.0856
7200.000000 115.352 -8.1969
7300.000000 115.321 -7.1691
7400.000000 115.249 -7.4618
7500.000000 115.149 -7.6083
7620.000000 115.100 -7.8092
7750.000000 114.933 -8.1042
7880.000000 114.872 -9.5628
8000.000000 114.727 -9.5751
8120.000000 114.458 -12.2786
8250.000000 114.182 -14.0066
8380.000000 113.690 -15.5066
8500.000000 113.120 -16.9835
8620.000000 112.402 -17.4369
8750.000000 111.627 -15.5453
8850.000000 111.257 -12.7542
9000.000000 110.715 -7.3179
9120.000000 110.769 -3.5492
9250.000000 111.215 -1.5153
9380.000000 111.375 -1.3131
9500.000000 111.524 -2.5527
9620.000000 111.320 -3.8289
9750.000000 111.024 -4.9723
9880.000000 110.711 -4.8873
10000.000000 110.412 -4.7400
10150.000000 110.054 -3.0024
10300.000000 109.717 -1.3880
10440.000000 109.617 1.2636
10600.000000 109.411 4.4180
10750.000000 109.529 6.5611
10900.000000 109.637 9.1698
11060.000000 109.769 9.8692
11200.000000 110.258 10.4189
11380.000000 110.567 10.7250
11500.000000 110.850 8.6867
11720.000000 111.183 5.3829
11800.000000 111.248 2.9290
12060.000000 111.025 -3.0924
12200.000000 110.874 -7.1259
12410.000000 110.308 -11.9283
12500.000000 109.859 -15.1260
12650.000000 109.073 -17.4098
12800.000000 108.339 -20.2805
13150.000000 106.133 -22.2607
13200.000000 105.514 -21.6722
13400.000000 104.294 -20.2981
13600.000000 103.012 -18.0920
13800.000000 101.689 -11.0722
14000.000000 101.453 -6.3647
14300.000000 100.474 -1.3465
14500.000000 100.128 4.7082
14750.000000 99.847 3.2145
15000.000000 99.097 8.7878
15250.000000 98.809 8.2765
15500.000000 97.642 8.2273
15750.000000 97.009 8.5683
16000.000000 96.463 17.8784
16250.000000 95.095 15.9735
16500.000000 94.643 15.8551
16750.000000 95.159 30.7203
17000.000000 96.841 29.8941
17250.000000 99.928 17.2769
17500.000000 102.411 -37.7265
17750.000000 96.040 -88.8270
18000.000000 87.940 -111.6464
18250.000000 86.412 -128.7944
18500.000000 85.593 -166.9533
18750.000000 83.188 175.4845
19000.000000 84.517 160.0101
19250.000000 85.326 157.9092
19500.000000 84.364 131.1078
19750.000000 86.942 128.6363
